Projekt Aerodynamik Ãœbung CPM3
P_amb in [Pa]:  102415 T_amb in [K]: 297
Channel 1-3 HCL Druckdaten [V] 
2.340	2.395	2.392
2.339	2.405	2.395
2.342	2.405	2.397
2.337	2.403	2.397
2.339	2.403	2.400
2.337	2.404	2.406
2.337	2.391	2.419
2.339	2.400	2.429
2.337	2.403	2.439
2.337	2.400	2.441
2.328	2.403	2.436
2.329	2.400	2.432
2.332	2.398	2.424
2.340	2.398	2.432
2.334	2.401	2.429
2.334	2.393	2.434
2.337	2.395	2.434
2.332	2.403	2.426
2.331	2.403	2.431
2.327	2.403	2.437
2.321	2.398	2.429
2.327	2.405	2.420
2.332	2.397	2.420
2.337	2.398	2.448
2.334	2.403	2.449
2.337	2.399	2.446
2.334	2.395	2.447
2.332	2.398	2.446
2.327	2.402	2.455
2.329	2.397	2.463
2.330	2.404	2.462
2.327	2.403	2.462
2.329	2.396	2.444
2.330	2.403	2.437
2.330	2.401	2.432
2.330	2.403	2.431
2.326	2.398	2.430
2.329	2.395	2.427
2.334	2.395	2.427
2.337	2.401	2.429
2.329	2.398	2.438
2.334	2.402	2.441
2.324	2.398	2.449
2.329	2.400	2.441
2.327	2.401	2.434
2.324	2.398	2.436
2.326	2.396	2.434
2.332	2.405	2.427
2.324	2.403	2.429
2.332	2.402	2.433
2.329	2.400	2.424
2.329	2.400	2.422
2.329	2.403	2.421
2.330	2.396	2.412
2.335	2.397	2.405
2.330	2.399	2.406
2.334	2.401	2.402
2.334	2.403	2.394
2.332	2.398	2.382
2.334	2.400	2.375
2.335	2.397	2.367
2.332	2.395	2.353
2.327	2.401	2.358
2.326	2.400	2.364
2.322	2.399	2.371
2.327	2.404	2.377
2.328	2.400	2.394
2.329	2.402	2.387
2.331	2.395	2.392
2.324	2.399	2.402
2.319	2.403	2.417
2.320	2.401	2.428
2.321	2.398	2.424
2.312	2.397	2.419
2.322	2.403	2.417
2.324	2.405	2.415
2.324	2.396	2.417
2.331	2.400	2.422
2.334	2.406	2.424
2.337	2.395	2.419
2.329	2.400	2.412
2.332	2.395	2.393
2.328	2.396	2.387
2.329	2.400	2.395
2.332	2.398	2.400
2.327	2.395	2.407
2.329	2.395	2.406
2.330	2.398	2.394
2.327	2.401	2.392
2.328	2.400	2.390
2.331	2.397	2.387
2.326	2.397	2.386
2.329	2.403	2.389
2.331	2.408	2.395
2.332	2.403	2.387
2.329	2.403	2.385
2.334	2.401	2.384
2.327	2.400	2.384
2.335	2.403	2.370
2.334	2.405	2.362
2.328	2.403	2.366
2.332	2.403	2.359
2.330	2.404	2.352
2.332	2.400	2.338
2.332	2.404	2.345
2.332	2.403	2.345
2.337	2.401	2.353
2.340	2.398	2.363
2.340	2.398	2.364
2.333	2.401	2.364
2.339	2.403	2.371
2.342	2.392	2.370
2.337	2.401	2.365
2.339	2.403	2.358
2.337	2.402	2.353
2.332	2.400	2.348
2.335	2.405	2.352
2.333	2.405	2.363
2.326	2.407	2.370
2.329	2.400	2.370
2.335	2.397	2.360
2.327	2.395	2.360
2.322	2.395	2.356
2.327	2.398	2.358
2.324	2.400	2.365
2.327	2.399	2.375
2.336	2.397	2.394
2.337	2.401	2.413
2.337	2.393	2.409
2.344	2.401	2.403
2.341	2.395	2.387
2.337	2.401	2.384
2.342	2.405	2.373
2.337	2.403	2.360
2.342	2.391	2.352
2.340	2.396	2.346
2.332	2.400	2.348
2.339	2.406	2.353
2.339	2.404	2.356
2.339	2.399	2.353
2.334	2.403	2.358
2.334	2.398	2.353
2.337	2.403	2.353
2.332	2.405	2.368
2.331	2.400	2.376
2.337	2.397	2.387
2.335	2.405	2.408
2.337	2.396	2.417
2.337	2.403	2.424
2.339	2.397	2.424
2.341	2.402	2.424
2.339	2.398	2.425
2.332	2.391	2.424
2.337	2.393	2.425
2.329	2.395	2.417
2.332	2.396	2.404
2.334	2.398	2.387
2.337	2.395	2.384
2.332	2.395	2.387
2.329	2.403	2.399
2.332	2.398	2.417
2.324	2.401	2.417
2.327	2.399	2.414
2.328	2.399	2.408
2.327	2.396	2.410
2.322	2.400	2.412
2.324	2.401	2.412
2.327	2.396	2.421
2.329	2.401	2.423
2.329	2.398	2.432
2.332	2.401	2.432
2.333	2.403	2.424
2.335	2.398	2.409
2.337	2.393	2.411
2.339	2.398	2.419
2.339	2.394	2.421
2.337	2.391	2.422
2.336	2.398	2.414
2.334	2.401	2.402
2.327	2.408	2.394
2.329	2.397	2.404
2.334	2.405	2.404
2.335	2.403	2.400
2.334	2.395	2.407
2.338	2.400	2.405
2.335	2.398	2.398
2.339	2.403	2.392
2.339	2.400	2.380
2.334	2.400	2.373
2.335	2.401	2.370
2.339	2.401	2.377
2.334	2.396	2.395
2.339	2.403	2.406
2.330	2.398	2.422
2.334	2.403	2.432
2.334	2.401	2.439
2.332	2.400	2.441
2.327	2.403	2.449
2.331	2.403	2.457
2.332	2.401	2.457
2.337	2.398	2.451
2.339	2.397	2.441
2.332	2.398	2.426
2.334	2.396	2.424
2.332	2.395	2.413
2.329	2.401	2.415
2.331	2.395	2.419
2.329	2.398	2.422
2.333	2.398	2.409
2.331	2.397	2.406
2.334	2.403	2.402
2.334	2.404	2.405
2.332	2.401	2.412
2.332	2.400	2.417
2.329	2.393	2.431
2.324	2.395	2.436
2.322	2.398	2.441
2.330	2.405	2.433
2.332	2.395	2.422
2.332	2.401	2.410
2.332	2.397	2.419
2.332	2.401	2.421
2.335	2.399	2.425
2.334	2.394	2.422
2.334	2.402	2.417
2.336	2.403	2.420
2.340	2.403	2.421
2.335	2.401	2.412
2.339	2.405	2.407
2.339	2.401	2.407
2.329	2.398	2.404
2.337	2.403	2.398
2.334	2.401	2.387
2.337	2.398	2.385
2.334	2.397	2.389
2.341	2.403	2.400
2.329	2.398	2.405
2.334	2.395	2.387
2.327	2.398	2.403
2.327	2.403	2.405
2.329	2.399	2.401
2.329	2.395	2.404
2.332	2.399	2.409
2.332	2.400	2.421
2.325	2.395	2.441
2.327	2.393	2.472
2.329	2.397	2.467
2.329	2.401	2.461
2.324	2.402	2.454
2.329	2.395	2.437
2.326	2.401	2.439
2.331	2.403	2.439
2.327	2.398	2.427
2.327	2.398	2.422
2.324	2.393	2.409
2.324	2.402	2.388
2.332	2.395	2.385
2.327	2.393	2.382
2.329	2.401	2.390
2.317	2.394	2.385
2.332	2.395	2.385
2.325	2.399	2.387
2.326	2.396	2.394
2.326	2.400	2.403
2.324	2.401	2.407
2.330	2.395	2.416
2.332	2.395	2.441
2.337	2.399	2.449
2.337	2.396	2.442
2.332	2.398	2.427
2.340	2.401	2.417
2.340	2.402	2.404
2.340	2.400	2.392
2.339	2.398	2.394
2.340	2.401	2.411
2.339	2.400	2.422
2.329	2.400	2.429
2.326	2.403	2.425
2.339	2.398	2.422
2.339	2.396	2.418
2.335	2.395	2.417
2.333	2.398	2.419
2.339	2.403	2.424
2.339	2.399	2.434
2.337	2.400	2.438
2.339	2.399	2.441
2.341	2.398	2.432
2.337	2.403	2.437
2.339	2.403	2.434
2.340	2.403	2.442
2.339	2.395	2.440
2.339	2.395	2.432
2.329	2.398	2.434
2.331	2.399	2.430
2.334	2.398	2.429
2.338	2.392	2.436
2.339	2.394	2.432
2.339	2.397	2.446
2.343	2.395	2.449
2.343	2.398	2.449
2.344	2.400	2.462
2.342	2.395	2.461
2.342	2.393	2.456
2.344	2.396	2.463
2.343	2.398	2.459
2.347	2.395	2.457
2.335	2.408	2.446
2.340	2.401	2.441
2.339	2.399	2.441
2.340	2.402	2.434
2.337	2.403	2.432
2.339	2.400	2.429
2.339	2.395	2.439
2.334	2.400	2.429
2.337	2.398	2.444
2.335	2.400	2.448
2.338	2.395	2.441
2.338	2.403	2.446
2.342	2.408	2.447
2.339	2.402	2.442
2.342	2.406	2.441
2.339	2.408	2.441
2.340	2.403	2.444
2.346	2.400	2.446
2.337	2.403	2.453
2.339	2.409	2.462
2.342	2.405	2.463
2.339	2.405	2.460
2.334	2.402	2.457
2.337	2.403	2.454
2.334	2.405	2.452
2.331	2.406	2.442
2.329	2.400	2.441
2.332	2.409	2.432
2.340	2.403	2.429
2.340	2.408	2.425
2.342	2.401	2.414
2.342	2.401	2.407
2.337	2.403	2.424
2.337	2.403	2.427
2.339	2.405	2.437
2.339	2.406	2.442
2.340	2.402	2.442
2.333	2.409	2.448
2.330	2.406	2.448
2.339	2.402	2.445
2.337	2.402	2.436
2.337	2.404	2.437
2.339	2.405	2.449
2.341	2.408	2.464
2.342	2.403	2.467
2.339	2.411	2.469
2.345	2.405	2.466
2.344	2.403	2.479
2.339	2.405	2.479
2.337	2.403	2.464
2.339	2.407	2.465
2.334	2.401	2.459
2.339	2.404	2.457
2.334	2.403	2.444
2.339	2.401	2.439
2.335	2.404	2.419
2.337	2.402	2.406
2.332	2.406	2.421
2.336	2.406	2.429
2.330	2.401	2.434
2.337	2.401	2.437
2.334	2.406	2.443
2.342	2.401	2.462
2.339	2.406	2.462
2.340	2.403	2.456
2.342	2.408	2.446
2.342	2.400	2.437
2.346	2.406	2.440
2.342	2.399	2.439
2.346	2.403	2.442
2.341	2.400	2.442
2.342	2.403	2.438
2.346	2.400	2.428
2.345	2.408	2.427
2.344	2.401	2.423
2.349	2.399	2.425
2.349	2.397	2.412
2.340	2.405	2.403
2.342	2.410	2.409
2.339	2.403	2.413
2.339	2.408	2.407
2.339	2.411	2.406
2.337	2.408	2.410
2.344	2.410	2.409
2.337	2.401	2.411
2.339	2.400	2.414
2.337	2.406	2.412
2.344	2.403	2.400
2.344	2.398	2.400
2.339	2.405	2.392
2.342	2.406	2.388
2.350	2.406	2.383
2.338	2.403	2.384
2.348	2.400	2.373
2.346	2.403	2.369
2.342	2.400	2.370
2.339	2.406	2.369
2.341	2.401	2.370
2.341	2.400	2.371
2.342	2.410	2.360
2.340	2.402	2.353
2.336	2.401	2.343
2.336	2.398	2.353
2.339	2.401	2.376
2.344	2.395	2.390
2.344	2.398	2.389
2.339	2.403	2.387
2.339	2.398	2.375
2.332	2.400	2.371
2.332	2.400	2.368
2.335	2.401	2.374
2.332	2.407	2.375
2.345	2.401	2.370
2.337	2.397	2.366
2.334	2.398	2.353
2.339	2.397	2.350
2.334	2.403	2.351
2.339	2.408	2.353
2.340	2.401	2.353
2.336	2.403	2.357
2.335	2.398	2.364
2.337	2.398	2.373
2.335	2.401	2.374
2.327	2.396	2.377
2.329	2.401	2.387
2.327	2.386	2.392
2.324	2.395	2.400
2.335	2.403	2.408
2.334	2.401	2.412
2.322	2.398	2.403
2.327	2.401	2.393
2.327	2.405	2.405
2.332	2.402	2.411
2.331	2.408	2.415
2.332	2.403	2.417
2.334	2.403	2.417
2.330	2.404	2.414
2.337	2.400	2.421
2.336	2.400	2.419
2.337	2.403	2.412
2.334	2.396	2.397
2.336	2.407	2.382
2.334	2.403	2.378
2.329	2.397	2.373
2.331	2.403	2.375
2.335	2.398	2.374
2.333	2.403	2.381
2.330	2.399	2.370
2.329	2.397	2.357
2.334	2.398	2.354
2.324	2.393	2.355
2.327	2.398	2.348
2.335	2.400	2.340
2.327	2.395	2.335
2.325	2.398	2.332
2.324	2.398	2.335
2.320	2.398	2.335
2.329	2.392	2.333
2.329	2.403	2.340
2.326	2.403	2.335
2.329	2.397	2.338
2.329	2.405	2.344
2.327	2.394	2.341
2.325	2.403	2.343
2.322	2.398	2.339
2.321	2.397	2.325
2.317	2.395	2.315
2.322	2.399	2.315
2.319	2.393	2.321
2.322	2.393	2.323
2.322	2.396	2.325
2.322	2.396	2.328
2.330	2.397	2.336
2.326	2.396	2.336
2.331	2.403	2.339
2.332	2.393	2.350
2.331	2.400	2.352
2.329	2.398	2.355
2.329	2.393	2.371
2.332	2.395	2.370
2.329	2.398	2.380
2.327	2.395	2.373
2.324	2.390	2.382
2.321	2.394	2.384
2.327	2.401	2.377
2.326	2.398	2.375
2.332	2.398	2.365
2.329	2.398	2.360
2.329	2.401	2.360
2.329	2.397	2.377
2.327	2.396	2.390
2.337	2.395	2.390
2.332	2.393	2.380
2.337	2.397	2.383
2.334	2.396	2.385
2.327	2.401	2.389
2.329	2.408	2.390
2.329	2.393	2.392
2.329	2.393	2.400
2.325	2.395	2.417
2.324	2.398	2.414
2.325	2.391	2.420
2.324	2.395	2.420
2.327	2.395	2.423
2.322	2.403	2.420
2.319	2.398	2.421
2.326	2.401	2.406
2.317	2.396	2.405
2.329	2.401	2.398
2.321	2.398	2.387
2.323	2.393	2.382
2.319	2.393	2.375
2.322	2.395	2.375
2.317	2.398	2.387
2.321	2.396	2.401
2.322	2.393	2.397
2.324	2.395	2.394
2.327	2.395	2.397
2.324	2.398	2.402
2.321	2.404	2.413
2.322	2.402	2.410
2.322	2.396	2.407
2.319	2.393	2.410
2.327	2.395	2.424
2.324	2.401	2.424
2.319	2.401	2.424
2.322	2.398	2.420
2.316	2.398	2.410
2.325	2.395	2.407
2.319	2.395	2.400
2.319	2.393	2.394
2.320	2.395	2.396
2.319	2.391	2.392
2.322	2.394	2.392
2.319	2.389	2.387
2.320	2.403	2.381
2.316	2.403	2.385
2.326	2.400	2.379
2.322	2.398	2.377
2.324	2.401	2.387
2.327	2.403	2.407
2.322	2.395	2.407
2.329	2.398	2.407
2.322	2.405	2.393
2.329	2.403	2.392
2.325	2.396	2.394
2.317	2.401	2.397
2.322	2.398	2.409
2.327	2.395	2.416
2.330	2.401	2.424
2.324	2.403	2.424
2.324	2.401	2.412
2.325	2.401	2.404
2.322	2.398	2.398
2.321	2.393	2.404
2.322	2.393	2.409
2.327	2.398	2.413
2.327	2.396	2.434
2.325	2.395	2.442
2.329	2.398	2.456
2.329	2.395	2.448
2.332	2.398	2.441
2.332	2.401	2.442
2.331	2.394	2.439
2.334	2.395	2.438
2.334	2.395	2.442
2.339	2.401	2.441
2.340	2.398	2.447
2.337	2.395	2.454
2.337	2.397	2.454
2.331	2.397	2.446
2.329	2.397	2.429
2.332	2.401	2.419
2.334	2.397	2.419
2.337	2.400	2.424
2.332	2.401	2.419
2.337	2.391	2.425
2.332	2.393	2.436
2.330	2.395	2.442
2.330	2.395	2.454
2.337	2.391	2.462
2.336	2.395	2.452
2.335	2.401	2.436
2.337	2.395	2.441
2.334	2.395	2.445
2.330	2.398	2.444
2.339	2.400	2.448
2.332	2.397	2.446
2.337	2.403	2.445
2.334	2.399	2.430
2.329	2.398	2.424
2.329	2.393	2.442
2.327	2.398	2.442
2.332	2.392	2.442
2.330	2.399	2.425
2.329	2.394	2.424
2.332	2.399	2.422
2.322	2.400	2.420
2.327	2.399	2.417
2.322	2.400	2.415
2.334	2.400	2.429
2.329	2.390	2.441
2.329	2.395	2.439
2.335	2.398	2.437
2.332	2.402	2.442
2.339	2.392	2.444
2.339	2.397	2.450
2.339	2.393	2.454
2.331	2.398	2.454
2.330	2.393	2.454
2.334	2.401	2.456
2.334	2.398	2.454
2.325	2.400	2.441
2.331	2.407	2.425
2.329	2.405	2.416
2.339	2.401	2.409
2.339	2.399	2.412
2.337	2.398	2.406
2.340	2.399	2.401
2.337	2.391	2.389
2.339	2.398	2.386
2.332	2.400	2.394
2.327	2.398	2.407
2.330	2.405	2.410
2.332	2.401	2.412
2.327	2.400	2.415
2.329	2.405	2.424
2.330	2.398	2.429
2.332	2.408	2.442
2.330	2.403	2.454
2.330	2.407	2.460
2.329	2.404	2.461
2.330	2.393	2.474
2.332	2.405	2.474
2.327	2.406	2.478
2.329	2.403	2.470
2.337	2.401	2.456
2.329	2.403	2.446
2.332	2.393	2.444
2.334	2.398	2.428
2.339	2.401	2.424
2.339	2.399	2.418
2.339	2.405	2.425
2.334	2.391	2.421
2.334	2.397	2.414
2.330	2.403	2.417
2.329	2.398	2.430
2.339	2.398	2.432
2.337	2.406	2.433
2.337	2.400	2.425
2.340	2.400	2.437
2.334	2.410	2.449
2.337	2.400	2.449
2.334	2.402	2.446
2.337	2.404	2.440
2.329	2.413	2.442
2.332	2.403	2.444
2.332	2.401	2.447
2.337	2.398	2.441
2.335	2.398	2.421
2.329	2.396	2.414
2.334	2.401	2.410
2.329	2.393	2.405
2.330	2.395	2.397
2.327	2.395	2.394
2.327	2.393	2.394
2.325	2.394	2.397
2.326	2.403	2.397
2.330	2.398	2.395
2.329	2.396	2.395
2.332	2.401	2.388
2.332	2.396	2.396
2.335	2.398	2.407
2.334	2.395	2.425
2.336	2.393	2.429
2.340	2.393	2.431
2.337	2.396	2.418
2.330	2.397	2.424
2.332	2.398	2.424
2.330	2.396	2.425
2.329	2.396	2.426
2.325	2.388	2.419
2.324	2.397	2.411
2.324	2.398	2.408
2.325	2.401	2.397
2.324	2.400	2.405
2.317	2.398	2.406
2.324	2.398	2.414
2.324	2.397	2.409
2.329	2.399	2.406
2.325	2.396	2.398
2.329	2.405	2.397
2.330	2.406	2.397
2.329	2.398	2.398
2.329	2.401	2.401
2.332	2.403	2.408
2.326	2.401	2.424
2.332	2.400	2.432
2.327	2.403	2.442
2.335	2.398	2.442
2.329	2.398	2.441
2.327	2.396	2.453
2.322	2.396	2.447
2.319	2.401	2.442
2.328	2.394	2.437
2.324	2.393	2.433
2.319	2.401	2.429
2.332	2.401	2.425
2.330	2.401	2.420
2.326	2.395	2.424
2.324	2.397	2.426
2.330	2.401	2.423
2.329	2.401	2.425
2.335	2.402	2.424
2.337	2.402	2.438
2.327	2.401	2.436
2.333	2.399	2.432
2.332	2.400	2.416
2.337	2.393	2.405
2.329	2.395	2.402
2.332	2.400	2.395
2.324	2.398	2.388
2.324	2.399	2.387
2.319	2.393	2.382
2.331	2.392	2.389
2.326	2.396	2.385
2.323	2.396	2.387
2.328	2.395	2.393
2.319	2.397	2.394
2.327	2.396	2.391
2.327	2.395	2.387
2.325	2.398	2.375
2.324	2.396	2.373
2.327	2.398	2.374
2.325	2.398	2.382
2.327	2.403	2.384
2.331	2.404	2.380
2.329	2.401	2.370
2.330	2.402	2.370
2.332	2.402	2.370
2.337	2.400	2.374
2.332	2.405	2.377
2.329	2.403	2.384
2.331	2.405	2.386
2.333	2.401	2.397
2.322	2.410	2.412
2.330	2.401	2.420
2.330	2.403	2.433
2.332	2.405	2.454
2.337	2.393	2.452
2.337	2.406	2.449
2.332	2.396	2.441
2.336	2.399	2.438
2.328	2.405	2.440
2.337	2.398	2.429
2.334	2.400	2.423
2.329	2.408	2.412
2.337	2.395	2.397
2.332	2.401	2.383
2.334	2.398	2.390
2.332	2.401	2.386
2.329	2.400	2.390
2.336	2.401	2.404
2.334	2.404	2.424
2.337	2.399	2.439
2.332	2.403	2.455
2.337	2.408	2.462
2.335	2.405	2.457
2.329	2.400	2.446
2.327	2.398	2.434
2.336	2.404	2.424
2.337	2.405	2.420
2.335	2.398	2.410
2.334	2.405	2.413
2.332	2.402	2.406
2.337	2.400	2.417
2.337	2.399	2.422
2.342	2.408	2.423
2.339	2.406	2.424
2.342	2.397	2.422
2.343	2.401	2.414
2.336	2.400	2.416
2.339	2.400	2.401
2.349	2.403	2.408
2.346	2.403	2.407
2.347	2.407	2.418
2.344	2.403	2.421
2.347	2.400	2.425
2.342	2.398	2.436
2.345	2.404	2.431
2.347	2.406	2.432
2.346	2.401	2.439
2.356	2.401	2.441
2.356	2.400	2.439
2.354	2.397	2.438
2.349	2.394	2.442
2.346	2.407	2.434
2.345	2.403	2.444
2.345	2.401	2.449
2.339	2.395	2.466
2.342	2.399	2.476
2.347	2.398	2.481
2.349	2.395	2.481
2.344	2.406	2.478
2.354	2.409	2.472
2.346	2.403	2.469
2.347	2.401	2.468
2.350	2.404	2.462
2.343	2.401	2.456
2.344	2.403	2.446
2.344	2.398	2.441
2.344	2.403	2.433
2.347	2.401	2.432
2.349	2.400	2.434
2.345	2.406	2.432
2.352	2.401	2.424
2.348	2.406	2.415
2.355	2.403	2.419
2.352	2.400	2.414
2.354	2.397	2.410
2.356	2.408	2.400
2.354	2.401	2.397
2.356	2.403	2.402
2.354	2.406	2.395
2.352	2.404	2.392
2.347	2.409	2.397
2.350	2.405	2.405
2.356	2.405	2.414
2.349	2.403	2.428
2.356	2.408	2.430
2.351	2.401	2.434
2.352	2.411	2.436
2.352	2.408	2.433
2.354	2.405	2.427
2.352	2.398	2.424
2.354	2.406	2.423
2.347	2.403	2.425
2.354	2.400	2.422
2.356	2.402	2.424
2.359	2.405	2.425
2.361	2.396	2.423
2.361	2.395	2.424
2.359	2.397	2.420
2.355	2.405	2.414
2.357	2.401	2.405
2.346	2.401	2.388
2.351	2.397	2.389
2.357	2.398	2.403
2.354	2.400	2.405
2.357	2.404	2.407
2.359	2.407	2.409
2.351	2.401	2.419
2.359	2.403	2.421
2.361	2.403	2.425
2.361	2.400	2.432
2.356	2.403	2.422
2.353	2.403	2.417
2.356	2.406	2.419
2.354	2.403	2.429
2.358	2.406	2.429
2.354	2.400	2.424
2.348	2.403	2.417
2.346	2.398	2.414
2.349	2.398	2.417
2.346	2.401	2.414
2.344	2.408	2.415
2.342	2.405	2.413
2.340	2.403	2.410
2.342	2.403	2.403
2.344	2.403	2.403
2.349	2.405	2.404
2.352	2.405	2.408
2.351	2.406	2.415
2.347	2.406	2.426
2.354	2.405	2.433
2.343	2.406	2.432
2.346	2.410	2.427
2.347	2.401	2.424
2.349	2.401	2.415
2.347	2.406	2.405
2.339	2.402	2.404
2.342	2.403	2.407
2.337	2.398	2.412
2.339	2.398	2.419
2.342	2.396	2.417
2.345	2.400	2.420
2.346	2.399	2.408
2.347	2.400	2.402
2.350	2.401	2.412
2.349	2.408	2.425
2.351	2.403	2.433
2.346	2.409	2.444
2.349	2.403	2.450
2.349	2.401	2.462
2.346	2.409	2.459
2.344	2.399	2.456
2.349	2.402	2.451
2.342	2.403	2.447
2.344	2.396	2.428
2.344	2.405	2.424
2.349	2.398	2.411
2.355	2.406	2.412
2.349	2.408	2.409
2.354	2.403	2.407
2.346	2.404	2.407
2.349	2.401	2.403
2.347	2.408	2.394
2.340	2.403	2.397
2.339	2.402	2.402
2.346	2.406	2.392
2.345	2.400	2.386
2.346	2.401	2.399
2.344	2.395	2.408
2.342	2.401	2.400
2.354	2.405	2.392
2.354	2.401	2.387
2.353	2.407	2.387
2.350	2.401	2.379
2.351	2.403	2.372
2.352	2.403	2.364
2.349	2.399	2.362
2.348	2.404	2.366
2.351	2.401	2.373
2.344	2.398	2.380
2.349	2.403	2.387
2.351	2.396	2.387
2.342	2.398	2.402
2.344	2.401	2.400
2.351	2.390	2.410
2.349	2.395	2.411
2.351	2.398	2.407
2.357	2.401	2.414
2.354	2.399	2.417
2.349	2.403	2.407
2.357	2.397	2.406
2.348	2.400	2.405
2.356	2.401	2.398
2.344	2.401	2.393
2.346	2.401	2.389
2.352	2.403	2.383
2.339	2.403	2.387
2.339	2.401	2.379
2.339	2.401	2.370
2.348	2.405	2.367
2.346	2.401	2.358
2.349	2.399	2.362
2.349	2.398	2.374
2.352	2.395	2.375
2.348	2.398	2.383
2.344	2.398	2.377
2.354	2.405	2.387
2.347	2.401	2.399
2.346	2.400	2.407
2.343	2.400	2.390
2.346	2.405	2.384
2.347	2.406	2.377
2.344	2.403	2.370
2.339	2.402	2.370
2.344	2.400	2.370
2.342	2.400	2.372
2.342	2.401	2.389
2.340	2.398	2.407
2.343	2.403	2.416
2.346	2.398	2.430
2.349	2.403	2.434
2.346	2.401	2.427
2.353	2.405	2.422
2.352	2.405	2.415
2.356	2.399	2.409
2.359	2.397	2.405
2.351	2.396	2.395
2.356	2.398	2.390
2.349	2.401	2.389
2.349	2.398	2.387
2.349	2.401	2.390
2.346	2.406	2.386
2.344	2.403	2.380
2.349	2.405	2.387
2.349	2.403	2.397
2.354	2.397	2.407
2.351	2.403	2.403
2.352	2.402	2.412
2.359	2.403	2.419
2.364	2.405	2.424
2.364	2.405	2.409
2.361	2.408	2.412
2.356	2.403	2.402
2.347	2.398	2.393
2.355	2.405	2.387
2.347	2.401	2.387
2.349	2.400	2.390
2.351	2.405	2.402
2.349	2.408	2.402
2.356	2.394	2.399
2.348	2.406	2.391
2.359	2.400	2.384
2.351	2.398	2.382
2.351	2.403	2.378
2.360	2.405	2.379
2.358	2.400	2.375
2.356	2.406	2.370
2.354	2.401	2.360
2.346	2.400	2.357
2.348	2.400	2.363
2.344	2.400	2.364
2.347	2.406	2.368
2.349	2.403	2.362
2.359	2.403	2.354
2.354	2.400	2.360
2.349	2.405	2.367
2.349	2.403	2.367
2.346	2.401	2.377
2.352	2.405	2.375
2.354	2.402	2.378
2.354	2.403	2.372
2.356	2.395	2.371
2.359	2.399	2.365
2.354	2.399	2.360
2.349	2.407	2.360
2.347	2.408	2.358
2.344	2.397	2.360
2.349	2.397	2.366
2.347	2.395	2.371
2.342	2.403	2.389
2.341	2.403	2.387
2.342	2.395	2.392
2.340	2.403	2.399
2.344	2.403	2.403
2.344	2.401	2.400
2.344	2.404	2.397
2.351	2.404	2.392
2.349	2.396	2.390
2.351	2.401	2.384
2.346	2.403	2.381
2.347	2.401	2.370
2.344	2.401	2.357
2.349	2.401	2.356
2.354	2.397	2.353
2.351	2.393	2.350
2.362	2.398	2.355
2.357	2.400	2.364
2.361	2.401	2.375
2.361	2.404	2.385
2.355	2.400	2.392
2.353	2.405	2.402
2.359	2.400	2.403
2.359	2.401	2.398
2.363	2.401	2.392
2.359	2.398	2.389
2.359	2.400	2.386
2.358	2.398	2.387
2.358	2.393	2.372
2.352	2.395	2.376
2.351	2.404	2.370
2.349	2.401	2.380
2.354	2.406	2.386
2.354	2.395	2.406
2.357	2.398	2.424
2.356	2.405	2.425
2.352	2.403	2.417
2.351	2.403	2.407
2.355	2.411	2.402
2.353	2.400	2.401
2.354	2.398	2.397
2.357	2.403	2.400
2.354	2.402	2.407
2.349	2.406	2.424
2.357	2.405	2.423
2.346	2.403	2.425
2.347	2.407	2.427
2.350	2.403	2.431
2.350	2.403	2.429
2.342	2.403	2.424
2.347	2.400	2.412
2.337	2.398	2.404
2.339	2.398	2.394
2.337	2.398	2.372
2.341	2.398	2.363
2.341	2.401	2.357
2.344	2.397	2.358
2.335	2.403	2.356
2.342	2.401	2.358
2.339	2.398	2.354
2.342	2.401	2.355
2.339	2.398	2.359
2.339	2.398	2.374
2.344	2.400	2.388
2.339	2.401	2.393
2.343	2.397	2.387
2.342	2.395	2.390
2.345	2.402	2.399
2.334	2.398	2.398
2.331	2.397	2.392
2.329	2.400	2.383
2.332	2.400	2.370
2.329	2.396	2.360
2.335	2.395	2.358
2.335	2.401	2.362
2.336	2.397	2.369
2.332	2.395	2.365
2.334	2.401	2.360
2.327	2.401	2.362
2.334	2.405	2.367
2.337	2.403	2.372
2.329	2.400	2.370
2.332	2.397	2.377
2.335	2.390	2.373
2.335	2.396	2.376
2.339	2.398	2.398
2.342	2.403	2.409
2.337	2.394	2.415
2.337	2.401	2.412
2.339	2.397	2.414
2.339	2.401	2.413
2.337	2.398	2.409
2.333	2.399	2.402
2.337	2.396	2.403
2.335	2.400	2.382
2.334	2.409	2.372
2.337	2.403	2.364
2.332	2.393	2.352
2.338	2.391	2.351
2.337	2.398	2.355
2.337	2.398	2.358
2.335	2.401	2.368
2.337	2.401	2.367
2.329	2.403	2.364
2.334	2.404	2.371
2.340	2.395	2.373
2.339	2.403	2.385
2.338	2.398	2.405
2.342	2.400	2.410
2.340	2.403	2.412
2.335	2.395	2.412
2.329	2.400	2.406
2.332	2.397	2.404
2.334	2.401	2.404
2.329	2.395	2.404
2.327	2.396	2.395
2.332	2.401	2.387
2.334	2.400	2.384
2.339	2.401	2.375
2.340	2.391	2.370
2.336	2.400	2.370
2.334	2.395	2.375
2.334	2.395	2.377
2.337	2.395	2.375
2.339	2.397	2.387
2.338	2.395	2.397
2.335	2.403	2.399
2.342	2.398	2.395
2.335	2.395	2.395
2.337	2.395	2.405
2.337	2.395	2.400
2.334	2.393	2.391
2.335	2.393	2.390
2.336	2.391	2.390
2.331	2.395	2.394
2.339	2.398	2.387
2.339	2.398	2.387
2.340	2.393	2.388
2.332	2.391	2.395
2.337	2.396	2.404
2.339	2.397	2.397
2.337	2.393	2.390
2.337	2.397	2.382
2.339	2.393	2.386
2.337	2.398	2.384
2.339	2.398	2.383
2.340	2.398	2.375
2.339	2.393	2.375
2.334	2.401	2.380
2.327	2.398	2.376
2.330	2.390	2.388
2.337	2.393	2.380
2.336	2.397	2.376
2.337	2.403	2.379
2.342	2.393	2.377
2.340	2.398	2.398
2.339	2.403	2.403
2.339	2.401	2.395
2.337	2.391	2.398
2.337	2.393	2.409
2.337	2.401	2.416
2.336	2.401	2.424
2.337	2.405	2.427
2.339	2.401	2.428
2.335	2.394	2.424
2.332	2.397	2.420
2.334	2.389	2.407
2.337	2.395	2.403
2.340	2.401	2.404
2.339	2.393	2.400
2.339	2.393	2.404
2.339	2.398	2.390
2.342	2.397	2.398
2.340	2.400	2.411
2.333	2.393	2.422
2.335	2.398	2.424
2.332	2.393	2.424
2.337	2.396	2.424
2.334	2.395	2.427
2.332	2.398	2.425
2.329	2.395	2.429
2.332	2.395	2.429
2.332	2.396	2.419
2.334	2.396	2.412
2.334	2.397	2.401
2.339	2.400	2.387
2.339	2.395	2.373
2.342	2.395	2.370
2.341	2.398	2.377
2.339	2.399	2.383
2.344	2.403	2.403
2.345	2.393	2.409
2.344	2.395	2.425
2.338	2.398	2.429
2.337	2.393	2.437
2.339	2.393	2.435
2.334	2.395	2.425
2.335	2.393	2.412
2.329	2.391	2.400
2.332	2.401	2.393
2.330	2.399	2.387
2.336	2.395	2.376
2.331	2.401	2.372
2.332	2.398	2.371
2.325	2.393	2.380
2.337	2.400	2.397
2.336	2.396	2.400
2.339	2.398	2.409
2.347	2.397	2.413
2.340	2.401	2.422
2.339	2.395	2.429
2.342	2.403	2.436
2.346	2.402	2.437
2.347	2.400	2.431
2.342	2.406	2.422
2.343	2.400	2.414
2.349	2.400	2.414
2.342	2.401	2.414
2.345	2.401	2.422
2.342	2.395	2.418
2.340	2.398	2.408
2.346	2.400	2.402
2.344	2.395	2.396
2.346	2.398	2.394
2.342	2.399	2.397
2.342	2.400	2.388
2.339	2.401	2.385
2.345	2.405	2.380
2.348	2.403	2.380
2.346	2.398	2.384
2.351	2.403	2.383
2.354	2.398	2.397
2.347	2.401	2.405
2.349	2.396	2.405
2.348	2.399	2.404
2.351	2.403	2.395
2.345	2.395	2.391
2.351	2.398	2.401
2.340	2.393	2.402
2.347	2.395	2.403
2.344	2.401	2.405
2.354	2.403	2.406
2.351	2.400	2.414
2.354	2.398	2.419
2.354	2.396	2.430
2.352	2.393	2.426
2.354	2.393	2.412
2.358	2.405	2.407
2.356	2.398	2.404
2.351	2.396	2.406
2.349	2.398	2.406
2.346	2.397	2.404
2.349	2.400	2.394
2.351	2.398	2.387
2.345	2.399	2.372
2.343	2.398	2.368
2.343	2.405	2.370
2.344	2.398	2.370
2.349	2.401	2.358
2.342	2.395	2.360
2.351	2.402	2.366
2.347	2.402	2.388
2.351	2.399	2.400
2.354	2.393	2.407
2.356	2.397	2.409
2.355	2.403	2.402
2.354	2.405	2.394
2.349	2.400	2.394
2.349	2.401	2.401
2.344	2.398	2.399
2.342	2.405	2.409
2.347	2.405	2.410
2.349	2.405	2.414
2.347	2.407	2.419
2.345	2.402	2.425
2.347	2.403	2.424
2.347	2.403	2.424
2.344	2.401	2.421
2.342	2.398	2.413
2.341	2.398	2.412
2.347	2.401	2.412
2.347	2.401	2.413
2.348	2.401	2.438
2.344	2.398	2.456
2.349	2.393	2.448
2.347	2.402	2.441
2.349	2.402	2.436
2.346	2.398	2.432
2.344	2.403	2.424
2.347	2.403	2.409
2.340	2.403	2.402
2.344	2.401	2.400
2.341	2.403	2.403
2.342	2.403	2.407
2.339	2.398	2.415
2.347	2.403	2.436
2.344	2.401	2.451
2.344	2.402	2.458
2.339	2.399	2.457
2.339	2.402	2.446
2.339	2.405	2.442
2.339	2.395	2.437
2.342	2.403	2.425
2.349	2.399	2.413
2.342	2.395	2.398
2.341	2.400	2.389
2.342	2.398	2.390
2.344	2.401	2.395
2.340	2.401	2.410
2.341	2.398	2.424
2.347	2.402	2.425
2.339	2.399	2.422
2.337	2.406	2.413
2.342	2.398	2.412
2.337	2.400	2.404
2.340	2.398	2.403
2.334	2.403	2.402
2.337	2.402	2.404
2.336	2.395	2.404
2.335	2.398	2.393
2.336	2.401	2.384
2.332	2.396	2.378
2.330	2.405	2.373
2.334	2.401	2.373
2.335	2.402	2.372
2.339	2.395	2.382
2.332	2.395	2.393
2.339	2.403	2.407
2.337	2.403	2.407
2.337	2.397	2.404
2.334	2.400	2.419
2.337	2.395	2.408
2.332	2.400	2.410
2.342	2.393	2.406
2.339	2.397	2.399
2.339	2.400	2.400
2.339	2.399	2.393
2.350	2.395	2.388
2.341	2.395	2.385
2.346	2.406	2.386
2.339	2.401	2.385
2.346	2.395	2.379
2.339	2.395	2.373
2.342	2.400	2.371
2.341	2.400	2.370
2.342	2.398	2.370
2.343	2.401	2.371
2.339	2.402	2.384
2.344	2.395	2.393
2.339	2.398	2.406
2.346	2.398	2.432
2.352	2.398	2.436
2.349	2.397	2.432
2.356	2.395	2.418
2.347	2.397	2.419
2.350	2.403	2.419
2.348	2.397	2.419
2.349	2.401	2.414
2.349	2.395	2.414
2.349	2.399	2.406
2.342	2.393	2.407
2.344	2.395	2.404
2.337	2.395	2.404
2.339	2.401	2.417
2.342	2.397	2.424
2.338	2.395	2.431
2.342	2.398	2.442
2.356	2.398	2.452
2.352	2.398	2.459
2.351	2.394	2.451
2.359	2.401	2.447
2.351	2.401	2.439
2.352	2.401	2.431
2.348	2.405	2.426
2.347	2.401	2.433
2.344	2.401	2.440
2.342	2.400	2.447
2.339	2.401	2.439
2.339	2.395	2.439
2.339	2.396	2.442
2.339	2.401	2.439
2.340	2.401	2.441
2.343	2.398	2.449
2.340	2.394	2.446
2.339	2.398	2.452
2.334	2.398	2.445
2.339	2.393	2.442
2.344	2.397	2.434
2.346	2.395	2.424
2.342	2.398	2.426
2.334	2.395	2.429
2.339	2.397	2.429
2.337	2.400	2.429
2.337	2.401	2.432
2.346	2.393	2.425
2.342	2.398	2.439
2.349	2.397	2.436
2.349	2.393	2.441
2.344	2.398	2.446
2.342	2.400	2.442
2.343	2.401	2.444
2.349	2.395	2.443
2.351	2.393	2.442
2.339	2.397	2.439
2.334	2.396	2.444
2.339	2.400	2.459
2.344	2.396	2.456
2.337	2.399	2.449
2.337	2.400	2.452
2.337	2.396	2.450
2.340	2.398	2.444
2.342	2.395	2.438
2.339	2.401	2.429
2.352	2.393	2.427
2.346	2.398	2.427
2.348	2.390	2.436
2.347	2.405	2.438
2.342	2.408	2.441
2.346	2.398	2.455
2.343	2.397	2.458
2.349	2.409	2.451
2.346	2.399	2.449
2.341	2.403	2.469
2.346	2.400	2.483
2.346	2.403	2.486
2.354	2.395	2.496
2.357	2.396	2.481
2.357	2.402	2.472
2.353	2.396	2.453
2.354	2.398	2.444
2.352	2.393	2.442
2.351	2.391	2.444
2.346	2.397	2.444
2.348	2.396	2.439
2.359	2.396	2.446
2.351	2.398	2.458
2.357	2.403	2.464
2.354	2.400	2.469
2.351	2.395	2.474
2.349	2.401	2.474
2.354	2.400	2.462
2.351	2.393	2.454
2.346	2.398	2.442
2.347	2.396	2.431
2.344	2.399	2.419
2.349	2.399	2.414
2.341	2.398	2.404
2.342	2.397	2.427
2.341	2.397	2.441
2.340	2.390	2.457
2.344	2.395	2.454
2.339	2.398	2.449
2.342	2.393	2.434
2.347	2.393	2.431
2.350	2.393	2.426
2.345	2.404	2.427
2.356	2.400	2.442
2.354	2.395	2.442
2.357	2.394	2.436
2.354	2.393	2.437
2.353	2.393	2.434
2.354	2.396	2.431
2.351	2.397	2.424
2.347	2.400	2.436
2.347	2.398	2.442
2.354	2.396	2.449
2.344	2.390	2.462
2.357	2.394	2.461
2.356	2.397	2.464
2.360	2.395	2.466
2.356	2.389	2.462
2.353	2.401	2.461
2.364	2.403	2.474
2.359	2.403	2.472
2.359	2.398	2.471
2.359	2.400	2.468
2.359	2.396	2.457
2.366	2.405	2.462
2.366	2.398	2.455
2.366	2.403	2.451
2.364	2.398	2.449
2.357	2.397	2.437
2.364	2.397	2.434
2.362	2.400	2.425
2.354	2.403	2.420
2.357	2.395	2.424
2.346	2.401	2.431
2.351	2.395	2.446
2.347	2.397	2.443
2.358	2.395	2.446
2.359	2.396	2.427
2.358	2.395	2.424
2.360	2.403	2.417
2.364	2.406	2.404
2.364	2.397	2.399
2.361	2.401	2.392
2.364	2.393	2.394
2.361	2.401	2.407
2.359	2.401	2.407
2.364	2.398	2.407
2.364	2.393	2.407
2.360	2.398	2.407
2.364	2.398	2.417
2.364	2.400	2.432
2.356	2.409	2.432
2.359	2.409	2.432
2.359	2.409	2.431
2.359	2.403	2.427
2.357	2.405	2.437
2.355	2.396	2.433
2.348	2.405	2.420
2.354	2.398	2.412
2.349	2.401	2.409
2.349	2.400	2.407
2.353	2.400	2.417
2.354	2.395	2.424
2.349	2.401	2.433
2.357	2.405	2.435
2.356	2.393	2.427
2.357	2.395	2.425
2.358	2.395	2.417
2.359	2.403	2.407
2.354	2.405	2.410
2.359	2.405	2.411
2.352	2.402	2.425
2.354	2.398	2.429
2.345	2.403	2.432
2.347	2.401	2.425
2.341	2.405	2.409
2.346	2.395	2.404
2.347	2.394	2.407
2.344	2.398	2.410
2.348	2.403	2.412
2.347	2.401	2.407
2.351	2.401	2.403
2.347	2.391	2.407
2.348	2.403	2.414
2.340	2.397	2.427
2.344	2.392	2.424
2.349	2.395	2.424
2.356	2.401	2.414
2.353	2.392	2.403
2.357	2.396	2.407
2.354	2.398	2.419
2.360	2.395	2.422
2.356	2.400	2.412
2.355	2.401	2.411
2.354	2.401	2.413
2.359	2.398	2.398
2.361	2.402	2.388
2.369	2.401	2.384
2.366	2.403	2.374
2.361	2.399	2.384
2.359	2.403	2.387
2.361	2.398	2.390
2.354	2.393	2.387
2.359	2.396	2.390
2.358	2.408	2.389
2.361	2.406	2.383
2.359	2.401	2.380
2.361	2.403	2.392
2.361	2.404	2.414
2.369	2.401	2.429
2.361	2.401	2.435
2.361	2.408	2.436
2.349	2.401	2.432
2.359	2.401	2.422
2.351	2.399	2.409
2.356	2.401	2.404
2.356	2.395	2.400
2.356	2.401	2.407
2.363	2.405	2.417
2.361	2.403	2.410
2.361	2.399	2.405
2.364	2.395	2.392
2.357	2.403	2.396
2.361	2.406	2.397
2.361	2.401	2.394
2.356	2.395	2.387
2.351	2.398	2.380
2.352	2.403	2.373
2.359	2.397	2.385
2.353	2.397	2.400
2.347	2.400	2.410
2.347	2.406	2.419
2.351	2.405	2.412
2.346	2.398	2.406
2.354	2.395	2.395
2.359	2.401	2.395
2.348	2.400	2.402
2.346	2.397	2.409
2.350	2.400	2.420
2.351	2.403	2.418
2.356	2.400	2.424
2.357	2.395	2.418
2.354	2.408	2.420
2.356	2.400	2.432
2.346	2.395	2.429
2.346	2.400	2.427
2.343	2.403	2.415
2.342	2.403	2.407
2.341	2.409	2.397
2.351	2.402	2.402
2.340	2.401	2.394
2.339	2.402	2.397
2.342	2.403	2.389
2.344	2.405	2.388
2.344	2.403	2.392
2.342	2.397	2.397
2.347	2.405	2.398
2.351	2.396	2.406
2.346	2.398	2.423
2.355	2.398	2.441
2.356	2.405	2.446
2.357	2.399	2.456
2.359	2.406	2.449
2.349	2.404	2.462
2.354	2.410	2.467
2.352	2.403	2.470
2.342	2.406	2.464
2.339	2.406	2.452
2.344	2.405	2.442
2.341	2.402	2.443
2.342	2.408	2.430
2.344	2.400	2.422
2.342	2.408	2.406
2.339	2.408	2.394
2.350	2.406	2.394
2.349	2.408	2.398
2.349	2.400	2.407
2.354	2.400	2.425
2.351	2.403	2.439
2.354	2.403	2.429
2.359	2.405	2.430
2.356	2.403	2.424
2.357	2.407	2.434
2.355	2.405	2.440
2.352	2.406	2.441
2.351	2.404	2.457
2.347	2.405	2.461
2.354	2.394	2.462
2.354	2.405	2.453
2.354	2.410	2.454
2.364	2.410	2.448
2.350	2.410	2.447
2.349	2.405	2.445
2.350	2.407	2.432
2.359	2.406	2.419
2.349	2.408	2.415
2.354	2.411	2.412
2.351	2.403	2.429
2.346	2.412	2.452
2.344	2.410	2.453
2.342	2.403	2.459
2.351	2.405	2.442
2.352	2.408	2.433
2.344	2.401	2.431
2.344	2.405	2.423
2.346	2.407	2.424
2.347	2.406	2.432
2.346	2.406	2.440
2.354	2.405	2.449
2.349	2.403	2.443
2.351	2.402	2.450
2.348	2.409	2.457
2.344	2.405	2.456
2.344	2.401	2.454
2.346	2.405	2.449
2.354	2.406	2.458
2.350	2.408	2.454
2.341	2.407	2.442
2.339	2.403	2.431
2.344	2.403	2.429
2.342	2.406	2.424
2.339	2.405	2.423
2.337	2.409	2.424
2.341	2.401	2.422
2.347	2.400	2.435
2.349	2.411	2.462
2.354	2.405	2.466
2.348	2.405	2.477
2.355	2.410	2.476
2.348	2.403	2.464
2.346	2.408	2.463
2.354	2.406	2.469
2.352	2.405	2.484
2.347	2.411	2.487
2.351	2.411	2.493
2.353	2.403	2.486
2.356	2.404	2.489
2.355	2.411	2.484
2.354	2.410	2.476
2.351	2.409	2.463
2.356	2.411	2.462
2.354	2.405	2.453
2.351	2.410	2.466
2.358	2.410	2.478
2.364	2.405	2.479
2.364	2.406	2.477
2.364	2.409	2.479
2.359	2.407	2.484
2.362	2.405	2.483
2.366	2.410	2.487
2.369	2.405	2.473
2.364	2.411	2.469
2.369	2.413	2.467
2.369	2.410	2.462
2.368	2.404	2.456
2.369	2.405	2.449
2.365	2.410	2.443
2.367	2.411	2.439
2.361	2.413	2.442
2.364	2.411	2.446
2.363	2.408	2.446
2.363	2.411	2.444
2.369	2.410	2.444
2.373	2.411	2.446
2.369	2.410	2.441
2.368	2.408	2.442
2.368	2.408	2.448
2.366	2.410	2.446
2.364	2.408	2.449
2.364	2.406	2.452
2.359	2.409	2.447
2.364	2.409	2.447
2.364	2.408	2.438
2.361	2.405	2.433
2.367	2.407	2.436
2.356	2.410	2.431
2.356	2.405	2.448
2.361	2.411	2.441
2.361	2.410	2.442
2.354	2.410	2.442
2.352	2.410	2.462
2.351	2.410	2.468
2.364	2.410	2.464
2.360	2.408	2.462
2.355	2.412	2.462
2.356	2.410	2.452
2.359	2.413	2.452
2.361	2.410	2.459
2.356	2.410	2.457
2.354	2.413	2.457
2.357	2.410	2.456
2.362	2.410	2.456
2.360	2.410	2.461
2.347	2.411	2.465
2.361	2.413	2.462
2.358	2.411	2.461
2.358	2.412	2.454
2.358	2.413	2.446
2.356	2.413	2.448
2.361	2.412	2.452
2.360	2.408	2.459
2.355	2.411	2.456
2.358	2.415	2.444
2.366	2.407	2.440
2.356	2.410	2.442
2.364	2.408	2.444
2.361	2.408	2.440
2.359	2.412	2.442
2.358	2.411	2.437
2.364	2.410	2.426
2.356	2.410	2.426
2.358	2.410	2.424
2.358	2.408	2.429
2.351	2.406	2.432
2.361	2.413	2.437
2.349	2.409	2.434
2.354	2.411	2.429
2.359	2.408	2.415
2.359	2.404	2.409
2.358	2.408	2.405
2.351	2.411	2.405
2.347	2.397	2.389
2.349	2.407	2.384
2.346	2.403	2.383
2.351	2.408	2.392
2.346	2.408	2.400
2.347	2.398	2.406
2.354	2.402	2.413
2.362	2.410	2.412
2.360	2.408	2.413
2.357	2.406	2.414
2.359	2.411	2.434
2.359	2.407	2.434
2.359	2.402	2.432
2.356	2.408	2.437
2.359	2.405	2.424
2.359	2.416	2.421
2.360	2.410	2.404
2.354	2.413	2.384
2.354	2.410	2.369
2.351	2.405	2.372
2.354	2.405	2.367
2.351	2.408	2.370
2.351	2.409	2.380
2.359	2.411	2.379
2.359	2.401	2.386
2.361	2.407	2.388
2.356	2.405	2.388
2.359	2.403	2.406
2.356	2.413	2.409
2.362	2.411	2.404
2.361	2.412	2.401
2.361	2.408	2.398
2.363	2.406	2.395
2.358	2.401	2.388
2.351	2.408	2.397
2.349	2.411	2.411
2.348	2.397	2.407
2.349	2.405	2.409
2.352	2.405	2.405
2.349	2.408	2.403
2.347	2.410	2.400
2.349	2.408	2.390
2.356	2.410	2.387
2.351	2.410	2.400
2.352	2.405	2.406
2.344	2.410	2.417
2.346	2.411	2.413
2.344	2.412	2.418
2.346	2.412	2.407
2.344	2.408	2.407
2.339	2.405	2.402
2.347	2.408	2.397
2.341	2.408	2.387
2.335	2.403	2.388
2.340	2.405	2.387
2.339	2.408	2.385
2.340	2.410	2.390
2.339	2.408	2.387
2.344	2.411	2.402
2.347	2.405	2.408
2.344	2.403	2.415
2.351	2.411	2.412
2.355	2.410	2.405
2.354	2.411	2.405
2.347	2.406	2.395
2.347	2.405	2.390
2.344	2.410	2.386
2.347	2.408	2.390
2.339	2.408	2.385
2.339	2.405	2.377
2.339	2.407	2.386
2.340	2.404	2.406
2.331	2.409	2.407
2.339	2.403	2.416
2.342	2.406	2.416
2.342	2.401	2.414
2.340	2.405	2.413
2.351	2.398	2.414
2.339	2.410	2.425
2.341	2.403	2.425
2.350	2.408	2.423
2.339	2.403	2.424
2.351	2.411	2.424
2.342	2.404	2.435
2.349	2.411	2.426
2.351	2.403	2.419
2.349	2.405	2.415
2.347	2.410	2.417
2.347	2.413	2.442
2.345	2.406	2.456
2.350	2.408	2.471
2.349	2.405	2.490
2.339	2.413	2.493
2.340	2.403	2.484
2.339	2.405	2.477
2.339	2.411	2.460
2.339	2.406	2.446
2.336	2.406	2.446
2.339	2.403	2.439
2.338	2.405	2.428
2.351	2.411	2.425
2.349	2.403	2.432
2.342	2.408	2.442
2.346	2.410	2.431
2.351	2.413	2.436
2.351	2.410	2.435
2.349	2.411	2.441
2.348	2.411	2.438
2.351	2.411	2.447
2.344	2.407	2.459
2.354	2.410	2.444
2.349	2.410	2.438
2.354	2.409	2.443
2.349	2.408	2.454
2.351	2.408	2.462
2.355	2.410	2.461
2.352	2.411	2.456
2.352	2.408	2.453
2.354	2.419	2.451
2.342	2.409	2.462
2.344	2.410	2.466
2.347	2.406	2.466
2.344	2.408	2.471
2.344	2.415	2.474
2.352	2.411	2.473
2.349	2.410	2.471
2.359	2.410	2.464
2.354	2.409	2.462
2.359	2.413	2.454
2.356	2.407	2.455
2.359	2.411	2.462
2.359	2.415	2.467
2.358	2.412	2.463
2.360	2.418	2.451
2.358	2.410	2.441
2.359	2.415	2.447
2.356	2.411	2.460
2.351	2.415	2.464
2.351	2.410	2.472
2.349	2.412	2.471
2.349	2.415	2.462
2.349	2.413	2.454
2.347	2.413	2.459
2.350	2.411	2.466
2.362	2.409	2.471
2.354	2.413	2.476
2.359	2.415	2.478
2.352	2.413	2.476
2.356	2.413	2.471
2.358	2.410	2.472
2.356	2.407	2.471
2.361	2.413	2.466
2.359	2.410	2.475
2.366	2.410	2.477
2.368	2.410	2.481
2.361	2.412	2.482
2.368	2.411	2.477
2.366	2.406	2.472
2.361	2.410	2.459
2.358	2.408	2.454
2.361	2.410	2.456
2.362	2.415	2.450
2.363	2.410	2.449
2.363	2.410	2.452
2.354	2.415	2.468
2.357	2.410	2.482
2.359	2.416	2.486
2.362	2.413	2.480
2.361	2.416	2.466
2.369	2.412	2.454
2.362	2.410	2.440
2.364	2.411	2.452
2.361	2.409	2.466
2.363	2.410	2.474
2.369	2.414	2.462
2.368	2.413	2.452
2.367	2.408	2.441
2.369	2.410	2.442
2.364	2.410	2.444
2.371	2.410	2.444
2.364	2.412	2.441
2.366	2.410	2.447
2.366	2.413	2.466
2.364	2.410	2.479
2.361	2.410	2.487
2.364	2.410	2.483
2.359	2.411	2.482
2.364	2.410	2.474
2.367	2.410	2.471
2.363	2.411	2.472
2.364	2.410	2.474
2.361	2.411	2.477
2.362	2.410	2.474
2.359	2.410	2.454
2.358	2.408	2.450
2.354	2.405	2.454
2.359	2.410	2.453
2.361	2.415	2.459
2.358	2.412	2.456
2.358	2.411	2.459
2.356	2.409	2.451
2.359	2.413	2.443
2.363	2.410	2.443
2.361	2.411	2.444
2.358	2.412	2.445
2.364	2.412	2.441
2.362	2.411	2.452
2.362	2.410	2.464
2.360	2.410	2.454
2.357	2.406	2.446
2.361	2.408	2.444
2.356	2.408	2.444
2.351	2.407	2.459
2.347	2.410	2.451
2.347	2.413	2.445
2.347	2.410	2.431
2.353	2.409	2.414
2.343	2.408	2.406
2.349	2.406	2.402
2.352	2.408	2.390
2.348	2.410	2.398
2.349	2.411	2.399
2.352	2.413	2.397
2.352	2.411	2.405
2.344	2.410	2.395
2.348	2.413	2.398
2.347	2.411	2.398
2.354	2.411	2.390
2.352	2.406	2.390
2.348	2.413	2.402
2.351	2.405	2.403
2.354	2.411	2.397
2.359	2.411	2.392
2.357	2.410	2.387
2.354	2.410	2.382
2.348	2.413	2.369
2.352	2.413	2.370
2.347	2.410	2.363
2.351	2.411	2.370
2.354	2.410	2.383
2.354	2.413	2.387
2.356	2.404	2.402
2.352	2.406	2.407
2.348	2.413	2.416
2.356	2.410	2.419
2.356	2.411	2.417
2.354	2.410	2.425
2.347	2.408	2.427
2.351	2.407	2.415
2.348	2.403	2.390
2.349	2.407	2.387
2.346	2.408	2.387
2.351	2.412	2.377
2.348	2.408	2.387
2.349	2.403	2.393
2.359	2.413	2.398
2.356	2.408	2.394
2.356	2.407	2.388
2.353	2.411	2.386
2.354	2.410	2.391
2.352	2.412	2.395
2.349	2.407	2.392
2.342	2.411	2.397
2.346	2.412	2.397
2.351	2.410	2.392
2.351	2.412	2.377
2.348	2.411	2.364
2.351	2.408	2.365
2.354	2.412	2.364
2.359	2.410	2.367
2.355	2.410	2.375
2.347	2.404	2.375
2.349	2.405	2.382
2.344	2.408	2.394
2.354	2.413	2.397
2.349	2.410	2.394
2.356	2.404	2.394
2.352	2.409	2.405
2.349	2.410	2.414
2.348	2.407	2.414
2.347	2.407	2.402
2.339	2.410	2.397
2.344	2.408	2.394
2.339	2.408	2.401
2.337	2.403	2.402
2.342	2.406	2.402
2.339	2.411	2.402
2.339	2.410	2.407
2.347	2.410	2.403
2.338	2.408	2.407
2.344	2.408	2.407
2.347	2.409	2.412
2.341	2.405	2.412
2.351	2.410	2.413
2.349	2.413	2.414
2.352	2.411	2.418
2.349	2.405	2.415
2.348	2.406	2.412
2.347	2.406	2.404
2.344	2.410	2.403
2.346	2.408	2.391
2.354	2.411	2.389
2.356	2.406	2.388
2.346	2.401	2.388
2.349	2.403	2.387
2.351	2.411	2.398
2.353	2.406	2.395
2.346	2.407	2.393
2.351	2.405	2.385
2.344	2.405	2.379
2.347	2.403	2.372
2.344	2.405	2.367
2.344	2.413	2.369
2.342	2.409	2.370
2.344	2.407	2.367
2.347	2.406	2.360
2.347	2.405	2.365
2.344	2.408	2.369
2.341	2.408	2.375
2.342	2.405	2.387
2.344	2.403	2.390
2.342	2.404	2.387
2.346	2.410	2.387
2.349	2.407	2.395
2.346	2.413	2.403
2.350	2.415	2.399
2.356	2.410	2.412
2.354	2.412	2.424
2.354	2.410	2.424
2.363	2.406	2.426
2.356	2.405	2.424
2.354	2.405	2.425
2.348	2.411	2.417
2.343	2.410	2.409
2.347	2.408	2.400
2.350	2.412	2.398
2.348	2.410	2.396
2.347	2.408	2.402
2.349	2.409	2.395
2.345	2.408	2.394
2.346	2.410	2.393
2.346	2.404	2.402
2.354	2.413	2.405
2.352	2.403	2.405
2.349	2.406	2.409
2.356	2.405	2.407
2.352	2.408	2.417
2.354	2.408	2.429
2.359	2.410	2.435
2.366	2.411	2.425
2.368	2.411	2.406
2.366	2.412	2.402
2.369	2.411	2.394
2.365	2.415	2.387
2.369	2.411	2.380
2.364	2.411	2.366
2.364	2.410	2.379
2.359	2.408	2.397
2.349	2.404	2.401
2.347	2.408	2.409
2.344	2.410	2.417
2.350	2.411	2.421
2.352	2.411	2.449
2.349	2.407	2.462
2.344	2.404	2.466
2.344	2.410	2.463
2.347	2.411	2.462
2.347	2.408	2.464
2.349	2.407	2.473
2.344	2.410	2.478
2.343	2.410	2.475
2.348	2.408	2.456
2.346	2.410	2.449
2.347	2.409	2.457
2.351	2.408	2.462
2.356	2.409	2.462
2.353	2.406	2.456
2.354	2.410	2.445
2.354	2.413	2.436
2.350	2.411	2.441
2.349	2.410	2.446
2.354	2.410	2.450
2.351	2.412	2.450
2.351	2.410	2.444
2.352	2.407	2.432
2.349	2.410	2.426
2.351	2.410	2.439
2.347	2.406	2.441
2.350	2.414	2.444
2.354	2.410	2.446
2.349	2.403	2.437
2.351	2.411	2.427
2.351	2.406	2.424
2.349	2.398	2.415
2.347	2.413	2.420
2.347	2.407	2.422
2.350	2.410	2.425
2.348	2.408	2.424
2.345	2.411	2.426
2.346	2.407	2.430
2.347	2.406	2.436
2.344	2.410	2.436
2.346	2.410	2.429
2.351	2.407	2.425
2.344	2.405	2.424
2.347	2.410	2.417
2.347	2.411	2.403
2.339	2.411	2.395
2.339	2.410	2.394
2.334	2.403	2.405
2.337	2.405	2.410
2.339	2.404	2.412
2.342	2.411	2.407
2.339	2.410	2.415
2.340	2.408	2.432
2.335	2.411	2.434
2.339	2.408	2.433
2.337	2.410	2.424
2.340	2.405	2.428
2.341	2.404	2.417
2.342	2.403	2.415
2.342	2.408	2.424
2.337	2.408	2.415
2.344	2.408	2.408
2.340	2.406	2.396
2.345	2.400	2.392
2.351	2.411	2.386
2.352	2.403	2.387
2.351	2.406	2.385
2.349	2.403	2.387
2.349	2.403	2.374
2.349	2.403	2.370
2.349	2.410	2.370
2.344	2.405	2.370
2.343	2.411	2.369
2.347	2.411	2.369
2.342	2.412	2.360
2.339	2.407	2.363
2.342	2.407	2.385
2.339	2.410	2.400
2.344	2.411	2.413
2.342	2.411	2.425
2.341	2.405	2.417
2.342	2.405	2.403
2.339	2.410	2.400
2.342	2.408	2.397
2.339	2.410	2.405
2.336	2.410	2.400
2.339	2.407	2.395
2.334	2.414	2.394
2.337	2.405	2.392
2.337	2.403	2.387
2.338	2.403	2.380
2.342	2.405	2.377
2.349	2.410	2.393
2.344	2.410	2.397
2.344	2.411	2.404
2.342	2.410	2.404
2.339	2.411	2.392
2.337	2.408	2.382
2.337	2.409	2.370
2.338	2.414	2.372
2.339	2.410	2.382
2.339	2.407	2.400
2.339	2.411	2.420
2.339	2.410	2.424
2.334	2.410	2.429
2.337	2.410	2.434
2.335	2.407	2.442
2.333	2.408	2.449
2.339	2.410	2.462
2.337	2.411	2.460
2.342	2.406	2.459
2.339	2.411	2.446
2.334	2.407	2.433
2.331	2.410	2.411
2.334	2.408	2.404
2.337	2.401	2.390
2.335	2.405	2.385
2.336	2.408	2.390
2.327	2.404	2.394
2.327	2.407	2.395
2.337	2.405	2.404
2.334	2.411	2.407
2.336	2.406	2.407
2.337	2.411	2.424
2.342	2.403	2.438
2.340	2.407	2.443
2.346	2.400	2.443
2.344	2.408	2.442
2.342	2.405	2.442
2.341	2.408	2.439
2.339	2.405	2.424
2.343	2.410	2.419
2.337	2.400	2.407
2.339	2.403	2.392
2.333	2.398	2.387
2.339	2.400	2.387
2.342	2.398	2.388
2.342	2.405	2.388
2.341	2.402	2.391
2.346	2.401	2.394
2.346	2.408	2.419
2.344	2.406	2.414
2.342	2.407	2.414
2.345	2.408	2.411
2.347	2.410	2.420
2.339	2.407	2.414
2.346	2.410	2.424
2.339	2.404	2.421
2.339	2.409	2.422
2.337	2.404	2.424
2.342	2.407	2.437
2.339	2.405	2.441
2.342	2.403	2.444
2.346	2.403	2.436
2.342	2.407	2.423
2.339	2.405	2.420
2.339	2.407	2.417
2.346	2.410	2.406
2.344	2.409	2.407
2.339	2.399	2.407
2.344	2.406	2.410
2.347	2.408	2.424
2.350	2.411	2.425
2.349	2.413	2.432
2.349	2.411	2.429
2.349	2.408	2.426
2.346	2.407	2.428
2.348	2.410	2.413
2.344	2.406	2.412
2.344	2.403	2.407
2.347	2.411	2.402
2.352	2.413	2.392
2.346	2.411	2.387
2.344	2.406	2.397
2.347	2.405	2.408
2.349	2.411	2.408
2.348	2.410	2.414
2.349	2.408	2.414
2.342	2.410	2.424
2.354	2.406	2.431
2.351	2.413	2.434
2.349	2.405	2.431
2.344	2.406	2.439
2.352	2.409	2.431
2.344	2.411	2.434
2.342	2.412	2.434
2.349	2.410	2.436
2.344	2.407	2.449
2.347	2.408	2.442
2.347	2.411	2.436
2.339	2.403	2.423
2.339	2.405	2.421
2.340	2.408	2.412
2.339	2.410	2.424
2.343	2.410	2.439
2.344	2.413	2.456
2.342	2.409	2.459
2.347	2.409	2.462
2.339	2.410	2.464
2.347	2.411	2.466
2.354	2.410	2.466
2.349	2.410	2.461
2.346	2.410	2.452
2.346	2.405	2.441
2.346	2.412	2.431
2.351	2.407	2.424
2.349	2.410	2.424
2.349	2.408	2.424
2.344	2.412	2.436
2.349	2.411	2.441
2.347	2.404	2.442
2.348	2.410	2.444
2.349	2.408	2.429
2.351	2.408	2.418
2.349	2.411	2.422
2.347	2.405	2.430
2.344	2.412	2.437
2.356	2.407	2.441
2.351	2.410	2.439
2.355	2.409	2.426
2.354	2.409	2.423
2.353	2.408	2.422
2.351	2.400	2.423
2.356	2.403	2.422
2.352	2.411	2.420
2.354	2.410	2.421
2.352	2.409	2.426
2.351	2.411	2.427
2.354	2.410	2.422
2.354	2.410	2.424
2.349	2.415	2.437
2.351	2.411	2.446
2.356	2.408	2.463
2.359	2.409	2.463
2.352	2.406	2.461
2.354	2.410	2.451
2.356	2.408	2.434
2.362	2.410	2.436
2.361	2.410	2.430
2.359	2.405	2.449
2.358	2.407	2.459
2.359	2.410	2.469
2.362	2.410	2.471
2.361	2.412	2.462
2.357	2.408	2.457
2.349	2.406	2.451
2.354	2.408	2.443
2.351	2.408	2.438
2.348	2.406	2.442
2.349	2.410	2.430
2.344	2.400	2.439
2.347	2.405	2.456
2.349	2.411	2.461
2.355	2.405	2.464
2.349	2.408	2.469
2.349	2.407	2.462
2.346	2.406	2.447
2.344	2.403	2.439
2.347	2.409	2.439
2.349	2.408	2.439
2.339	2.405	2.441
2.345	2.405	2.443
2.342	2.405	2.442
2.347	2.411	2.442
2.344	2.410	2.447
2.354	2.410	2.439
2.349	2.410	2.428
2.349	2.410	2.432
2.344	2.408	2.426
2.347	2.409	2.435
2.339	2.407	2.439
2.341	2.409	2.438
2.344	2.407	2.432
2.347	2.405	2.427
2.351	2.410	2.424
2.351	2.408	2.424
2.354	2.405	2.419
2.347	2.415	2.424
2.349	2.410	2.422
2.353	2.410	2.422
2.344	2.408	2.420
2.347	2.412	2.417
2.347	2.411	2.410
2.349	2.413	2.416
2.344	2.411	2.422
2.351	2.410	2.418
2.345	2.410	2.407
2.344	2.405	2.413
2.345	2.411	2.417
2.339	2.403	2.426
2.339	2.404	2.423
2.342	2.405	2.427
2.344	2.408	2.426
2.349	2.411	2.426
2.337	2.411	2.425
2.339	2.408	2.421
2.342	2.407	2.424
2.341	2.408	2.431
2.340	2.410	2.444
2.344	2.406	2.447
2.340	2.410	2.442
2.351	2.410	2.429
2.349	2.410	2.435
2.347	2.410	2.439
2.344	2.405	2.454
2.349	2.411	2.464
2.351	2.406	2.463
2.348	2.402	2.468
2.361	2.405	2.474
2.364	2.408	2.470
2.359	2.410	2.465
2.356	2.405	2.454
2.352	2.405	2.457
2.354	2.407	2.460
2.351	2.408	2.470
2.347	2.405	2.471
2.350	2.411	2.474
2.351	2.411	2.461
2.347	2.410	2.446
2.351	2.407	2.441
2.344	2.411	2.429
2.359	2.410	2.430
2.359	2.410	2.429
2.362	2.410	2.428
2.360	2.412	2.432
2.357	2.410	2.416
2.361	2.410	2.406
2.361	2.405	2.407
2.364	2.408	2.420
2.356	2.410	2.414
2.354	2.411	2.419
2.349	2.410	2.402
2.352	2.412	2.406
2.348	2.404	2.407
2.354	2.407	2.416
2.346	2.410	2.439
2.359	2.410	2.449
2.351	2.405	2.449
2.351	2.410	2.463
2.346	2.407	2.461
2.354	2.408	2.459
2.357	2.410	2.447
2.354	2.411	2.447
2.355	2.411	2.439
2.354	2.410	2.431
2.356	2.402	2.410
2.349	2.408	2.405
2.348	2.405	2.399
2.352	2.411	2.410
2.349	2.413	2.422
2.350	2.405	2.420
2.350	2.407	2.422
2.348	2.408	2.432
2.347	2.411	2.436
2.351	2.411	2.441
2.356	2.413	2.442
2.356	2.417	2.436
2.354	2.412	2.432
2.354	2.410	2.433
2.359	2.412	2.439
2.358	2.410	2.435
2.360	2.410	2.437
2.356	2.408	2.432
2.363	2.411	2.437
2.361	2.413	2.439
2.358	2.410	2.433
2.361	2.410	2.440
2.359	2.405	2.430
2.355	2.408	2.424
2.355	2.409	2.420
2.353	2.416	2.420
2.356	2.410	2.417
2.354	2.410	2.423
2.356	2.413	2.436
2.359	2.418	2.436
2.352	2.410	2.442
2.351	2.407	2.453
2.360	2.411	2.464
2.358	2.413	2.466
2.361	2.413	2.455
2.361	2.412	2.451
2.356	2.412	2.442
2.359	2.408	2.435
2.359	2.415	2.423
2.359	2.410	2.423
2.361	2.410	2.426
2.352	2.410	2.425
2.356	2.410	2.424
2.354	2.413	2.424
2.349	2.410	2.434
2.356	2.410	2.439
2.356	2.413	2.435
2.368	2.410	2.439
2.361	2.416	2.440
2.364	2.409	2.436
2.359	2.407	2.441
2.355	2.418	2.452
2.356	2.415	2.441
2.361	2.410	2.444
2.359	2.413	2.442
2.361	2.413	2.431
2.361	2.415	2.434
2.364	2.410	2.429
2.361	2.410	2.416
2.369	2.413	2.412
2.356	2.414	2.417
2.363	2.409	2.424
2.356	2.415	2.433
2.364	2.416	2.442
2.362	2.410	2.442
2.356	2.410	2.427
2.348	2.413	2.416
2.349	2.410	2.419
2.347	2.417	2.434
2.348	2.415	2.446
2.349	2.413	2.448
2.351	2.416	2.442
2.351	2.417	2.432
2.354	2.415	2.429
2.352	2.413	2.428
2.349	2.415	2.440
2.346	2.414	2.436
2.351	2.416	2.442
2.352	2.416	2.442
2.360	2.408	2.442
2.358	2.409	2.441
2.361	2.415	2.441
2.359	2.410	2.438
2.358	2.416	2.425
2.352	2.415	2.422
2.356	2.419	2.414
2.351	2.417	2.429
2.361	2.416	2.441
2.352	2.418	2.449
2.359	2.410	2.454
2.359	2.410	2.451
2.361	2.413	2.444
2.354	2.415	2.425
2.359	2.410	2.417
2.358	2.413	2.410
2.357	2.415	2.402
2.358	2.411	2.412
2.353	2.412	2.409
2.361	2.412	2.412
2.356	2.410	2.408
2.364	2.411	2.408
2.363	2.413	2.414
2.354	2.415	2.424
2.364	2.419	2.426
2.358	2.413	2.427
2.361	2.411	2.424
2.359	2.410	2.424
2.361	2.415	2.424
2.359	2.410	2.421
2.355	2.410	2.412
2.361	2.415	2.404
2.359	2.410	2.400
2.354	2.418	2.400
2.349	2.413	2.400
2.348	2.416	2.394
2.359	2.415	2.404
2.354	2.423	2.407
2.354	2.414	2.410
2.357	2.418	2.407
2.344	2.418	2.402
2.354	2.419	2.397
2.352	2.419	2.393
2.349	2.426	2.393
2.349	2.419	2.403
2.345	2.415	2.408
2.349	2.418	2.405
2.347	2.416	2.405
2.347	2.410	2.401
2.342	2.415	2.401
2.352	2.417	2.394
2.354	2.415	2.394
2.347	2.421	2.395
2.345	2.419	2.390
2.347	2.419	2.375
2.348	2.410	2.379
2.344	2.410	2.386
2.347	2.418	2.387
2.344	2.415	2.388
2.347	2.421	2.387
2.349	2.420	2.384
2.347	2.420	2.386
2.353	2.419	2.385
2.347	2.420	2.385
2.347	2.420	2.380
2.349	2.418	2.377
2.347	2.418	2.376
2.344	2.415	2.380
2.334	2.416	2.391
2.339	2.420	2.397
2.341	2.413	2.402
2.343	2.421	2.400
2.345	2.418	2.403
2.341	2.412	2.405
2.340	2.411	2.404
2.342	2.423	2.400
2.339	2.425	2.400
2.340	2.420	2.395
2.339	2.423	2.388
2.337	2.416	2.389
2.340	2.416	2.400
2.338	2.418	2.404
2.339	2.418	2.398
2.339	2.415	2.389
2.342	2.414	2.383
2.339	2.413	2.386
2.344	2.415	2.395
2.344	2.413	2.405
2.344	2.410	2.409
2.339	2.418	2.416
2.342	2.415	2.407
2.336	2.413	2.404
2.337	2.411	2.405
2.337	2.413	2.397
2.339	2.421	2.390
2.340	2.418	2.389
2.334	2.413	2.388
2.337	2.416	2.383
2.340	2.415	2.388
2.335	2.414	2.392
2.336	2.417	2.407
2.334	2.420	2.420
2.340	2.413	2.436
2.334	2.413	2.440
2.331	2.415	2.432
2.337	2.415	2.425
2.337	2.417	2.407
2.340	2.413	2.407
2.342	2.418	2.405
2.345	2.413	2.400
2.339	2.414	2.390
2.339	2.411	2.380
2.334	2.411	2.380
2.340	2.418	2.377
2.334	2.413	2.380
2.339	2.416	2.382
2.337	2.415	2.387
2.337	2.408	2.390
2.340	2.413	2.392
2.337	2.418	2.400
2.342	2.415	2.412
2.339	2.415	2.412
2.339	2.416	2.412
2.339	2.415	2.407
2.339	2.415	2.400
2.339	2.413	2.390
2.341	2.415	2.394
2.340	2.417	2.387
2.337	2.417	2.400
2.339	2.425	2.409
2.335	2.415	2.414
2.335	2.423	2.402
2.341	2.417	2.407
2.339	2.415	2.403
2.340	2.413	2.394
2.340	2.420	2.402
2.342	2.415	2.402
2.339	2.420	2.404
2.339	2.418	2.398
2.346	2.416	2.388
2.342	2.415	2.380
2.341	2.422	2.377
2.339	2.413	2.372
2.335	2.418	2.366
2.337	2.420	2.362
2.336	2.418	2.353
2.336	2.415	2.350
2.337	2.415	2.357
2.334	2.413	2.368
2.331	2.418	2.373
2.337	2.418	2.367
2.334	2.414	2.375
2.335	2.418	2.380
2.338	2.419	2.387
2.344	2.411	2.397
2.339	2.413	2.403
2.342	2.413	2.407
2.342	2.416	2.420
2.344	2.411	2.432
2.343	2.420	2.444
2.337	2.417	2.446
2.339	2.413	2.441
2.338	2.413	2.431
2.340	2.415	2.425
2.339	2.415	2.429
2.339	2.414	2.439
2.339	2.412	2.441
2.339	2.415	2.436
2.336	2.418	2.434
2.339	2.413	2.442
2.342	2.420	2.459
2.340	2.418	2.476
2.339	2.413	2.469
2.347	2.415	2.477
2.349	2.415	2.474
2.344	2.418	2.462
2.349	2.416	2.459
2.349	2.420	2.458
2.346	2.418	2.449
2.352	2.417	2.441
2.350	2.418	2.447
2.353	2.423	2.446
2.349	2.420	2.447
2.344	2.416	2.438
2.344	2.418	2.425
2.351	2.418	2.424
2.346	2.418	2.417
2.344	2.423	2.411
2.347	2.420	2.419
2.350	2.419	2.416
2.347	2.414	2.424
2.346	2.417	2.425
2.344	2.418	2.432
2.347	2.416	2.436
2.339	2.421	2.449
2.338	2.421	2.453
2.339	2.416	2.453
2.352	2.412	2.451
2.340	2.423	2.454
2.344	2.420	2.459
2.344	2.418	2.457
2.344	2.417	2.449
2.349	2.423	2.469
2.346	2.413	2.491
2.351	2.420	2.492
2.348	2.421	2.483
2.351	2.423	2.474
2.350	2.417	2.459
2.354	2.425	2.443
2.349	2.420	2.436
2.344	2.420	2.436
2.342	2.416	2.441
2.344	2.413	2.449
2.342	2.423	2.455
2.342	2.419	2.462
2.344	2.413	2.459
2.342	2.415	2.456
2.345	2.415	2.457
2.342	2.416	2.446
2.345	2.420	2.457
2.347	2.418	2.456
2.344	2.417	2.452
2.348	2.420	2.439
2.346	2.420	2.442
2.347	2.418	2.448
2.342	2.423	2.455
2.341	2.424	2.459
2.344	2.424	2.457
2.339	2.413	2.459
2.342	2.418	2.459
2.339	2.415	2.458
2.339	2.421	2.454
2.342	2.418	2.451
2.344	2.420	2.454
2.342	2.420	2.457
2.346	2.420	2.462
2.344	2.423	2.461
2.351	2.419	2.469
2.359	2.420	2.476
2.356	2.423	2.479
2.346	2.417	2.471
2.347	2.420	2.461
2.352	2.421	2.442
2.348	2.421	2.442
2.352	2.415	2.424
2.349	2.421	2.412
2.349	2.413	2.417
2.351	2.416	2.410
2.349	2.415	2.407
2.348	2.419	2.393
2.346	2.416	2.387
2.347	2.415	2.385
2.354	2.414	2.390
2.349	2.423	2.404
2.346	2.422	2.405
2.347	2.420	2.412
2.349	2.415	2.404
2.354	2.418	2.402
2.351	2.420	2.406
2.358	2.418	2.416
2.354	2.418	2.425
2.360	2.423	2.424
2.351	2.419	2.432
2.349	2.424	2.442
2.346	2.416	2.446
2.349	2.418	2.462
2.349	2.420	2.457
2.353	2.419	2.449
2.349	2.413	2.437
2.344	2.415	2.426
2.348	2.420	2.417
2.347	2.423	2.405
2.349	2.423	2.412
2.349	2.410	2.402
2.346	2.418	2.405
2.354	2.411	2.407
2.348	2.419	2.419
2.349	2.423	2.419
2.347	2.418	2.413
2.354	2.421	2.418
2.352	2.417	2.434
2.354	2.415	2.425
2.349	2.418	2.429
2.361	2.420	2.416
2.351	2.420	2.414
2.358	2.416	2.413
2.359	2.419	2.415
2.359	2.424	2.402
2.365	2.429	2.407
2.360	2.412	2.422
2.361	2.420	2.416
2.359	2.422	2.410
2.361	2.420	2.404
2.351	2.420	2.405
2.348	2.423	2.402
2.347	2.418	2.395
2.349	2.420	2.390
2.352	2.420	2.383
2.349	2.418	2.385
2.349	2.415	2.380
2.352	2.419	2.380
2.356	2.423	2.382
2.351	2.412	2.379
2.356	2.415	2.387
2.351	2.415	2.394
2.352	2.412	2.394
2.361	2.418	2.386
2.359	2.412	2.393
2.361	2.423	2.394
2.361	2.418	2.398
2.354	2.415	2.394
2.358	2.418	2.392
2.351	2.416	2.390
2.356	2.415	2.394
2.354	2.413	2.393
2.353	2.409	2.390
2.350	2.419	2.387
2.351	2.415	2.389
2.351	2.418	2.407
2.350	2.417	2.411
2.356	2.420	2.429
2.353	2.428	2.434
2.354	2.426	2.441
2.349	2.417	2.433
2.357	2.423	2.441
2.356	2.414	2.444
2.354	2.418	2.449
2.356	2.420	2.444
2.357	2.418	2.454
2.353	2.420	2.457
2.353	2.423	2.456
2.354	2.420	2.453
2.346	2.423	2.436
2.347	2.416	2.424
2.354	2.420	2.417
2.351	2.420	2.406
2.349	2.421	2.398
2.357	2.419	2.397
2.361	2.420	2.398
2.359	2.423	2.407
2.361	2.428	2.419
2.356	2.425	2.437
2.352	2.421	2.444
2.353	2.428	2.441
2.358	2.417	2.438
2.361	2.425	2.441
2.359	2.425	2.436
2.354	2.415	2.438
2.361	2.419	2.433
2.354	2.422	2.426
2.352	2.421	2.423
2.352	2.421	2.427
2.353	2.417	2.427
2.359	2.424	2.428
2.356	2.423	2.424
2.364	2.423	2.425
2.359	2.428	2.427
2.358	2.419	2.429
2.354	2.422	2.431
2.357	2.419	2.438
2.361	2.417	2.444
2.354	2.421	2.457
2.353	2.424	2.466
2.354	2.417	2.456
2.354	2.420	2.442
2.349	2.423	2.421
2.357	2.417	2.424
2.352	2.411	2.424
2.351	2.424	2.442
2.350	2.423	2.454
2.359	2.415	2.461
2.356	2.415	2.461
2.354	2.419	2.463
2.354	2.412	2.463
2.349	2.420	2.461
2.354	2.413	2.467
2.354	2.413	2.469
2.356	2.418	2.480
2.359	2.423	2.481
2.358	2.415	2.488
2.354	2.420	2.493
2.362	2.420	2.498
2.369	2.418	2.500
2.359	2.420	2.508
2.363	2.417	2.514
2.364	2.419	2.511
2.356	2.418	2.495
2.356	2.420	2.488
2.352	2.418	2.481
2.351	2.418	2.477
2.354	2.415	2.479
2.352	2.415	2.484
2.354	2.415	2.487
2.351	2.417	2.493
2.354	2.420	2.497
2.354	2.411	2.508
2.352	2.419	2.509
2.348	2.418	2.499
2.343	2.418	2.493
2.344	2.418	2.488
2.346	2.418	2.478
2.347	2.418	2.479
2.346	2.415	2.478
2.351	2.417	2.479
2.351	2.420	2.488
2.350	2.416	2.488
2.348	2.411	2.490
2.342	2.418	2.484
2.352	2.423	2.486
2.350	2.422	2.479
2.349	2.421	2.477
2.353	2.422	2.471
2.354	2.420	2.468
2.346	2.425	2.479
2.354	2.416	2.476
2.349	2.421	2.474
2.343	2.425	2.469
2.344	2.424	2.469
2.349	2.423	2.476
2.346	2.418	2.478
2.351	2.419	2.469
2.349	2.424	2.462
2.349	2.425	2.459
2.356	2.419	2.454
2.340	2.425	2.442
2.345	2.418	2.438
2.344	2.421	2.434
2.344	2.420	2.429
2.344	2.418	2.436
2.351	2.416	2.441
2.344	2.420	2.455
2.344	2.425	2.463
2.350	2.429	2.469
2.351	2.426	2.469
2.352	2.424	2.461
2.352	2.422	2.461
2.351	2.420	2.466
2.356	2.415	2.478
2.361	2.421	2.471
2.354	2.421	2.462
2.351	2.423	2.461
2.342	2.418	2.464
2.345	2.420	2.472
2.338	2.423	2.479
2.342	2.417	2.496
2.342	2.423	2.493
2.351	2.419	2.484
2.341	2.421	2.472
2.340	2.420	2.466
2.344	2.413	2.473
2.345	2.417	2.481
2.345	2.415	2.489
2.338	2.423	2.498
2.344	2.420	2.504
2.342	2.423	2.503
2.347	2.430	2.495
2.339	2.418	2.486
2.351	2.420	2.479
2.344	2.423	2.479
2.347	2.424	2.477
2.346	2.423	2.477
2.335	2.426	2.479
2.342	2.417	2.471
2.339	2.425	2.461
2.339	2.421	2.446
2.338	2.424	2.429
2.334	2.420	2.423
2.339	2.416	2.417
2.342	2.422	2.414
2.345	2.418	2.422
2.337	2.424	2.436
2.344	2.418	2.446
2.346	2.417	2.449
2.347	2.420	2.442
2.349	2.420	2.440
2.344	2.419	2.439
2.346	2.418	2.440
2.340	2.418	2.438
2.341	2.418	2.431
2.344	2.415	2.425
2.344	2.415	2.419
2.339	2.425	2.420
2.339	2.427	2.409
2.341	2.419	2.406
2.343	2.422	2.394
2.343	2.420	2.390
2.337	2.423	2.399
2.341	2.423	2.400
2.337	2.425	2.393
2.344	2.418	2.407
2.346	2.420	2.407
2.339	2.418	2.405
2.346	2.425	2.407
2.337	2.419	2.403
2.344	2.411	2.419
2.342	2.412	2.421
2.340	2.417	2.422
2.340	2.413	2.425
2.344	2.415	2.432
2.339	2.416	2.424
2.339	2.425	2.426
2.346	2.416	2.419
2.349	2.423	2.419
2.352	2.423	2.422
2.342	2.423	2.416
2.338	2.418	2.417
2.339	2.422	2.406
2.339	2.421	2.405
2.334	2.417	2.402
2.337	2.415	2.395
2.339	2.423	2.384
2.338	2.415	2.380
2.339	2.418	2.390
2.342	2.420	2.394
2.341	2.421	2.402
2.340	2.417	2.412
2.347	2.420	2.417
2.344	2.413	2.411
2.346	2.420	2.407
2.344	2.416	2.400
2.338	2.419	2.380
2.337	2.420	2.374
2.339	2.423	2.367
2.332	2.420	2.382
2.335	2.423	2.388
2.339	2.420	2.395
2.339	2.418	2.403
2.339	2.428	2.395
2.342	2.422	2.395
2.339	2.421	2.385
2.344	2.422	2.390
2.337	2.424	2.394
2.338	2.425	2.388
2.335	2.417	2.387
2.337	2.415	2.387
2.334	2.415	2.389
2.339	2.419	2.393
2.341	2.416	2.390
2.339	2.415	2.387
2.336	2.417	2.386
2.337	2.423	2.397
2.336	2.418	2.396
2.340	2.421	2.397
2.337	2.420	2.393
2.334	2.420	2.392
2.332	2.417	2.389
2.331	2.418	2.386
2.329	2.415	2.387
2.331	2.415	2.383
2.332	2.416	2.388
2.337	2.425	2.380
2.341	2.420	2.383
2.339	2.422	2.382
2.339	2.418	2.389
2.344	2.420	2.384
2.344	2.424	2.387
2.346	2.417	2.387
2.344	2.416	2.393
2.342	2.418	2.403
2.341	2.413	2.407
2.347	2.413	2.409
2.344	2.422	2.389
2.340	2.417	2.389
2.337	2.415	2.381
2.339	2.418	2.370
2.339	2.413	2.370
2.346	2.425	2.372
2.337	2.417	2.383
2.339	2.421	2.377
2.339	2.417	2.377
2.342	2.413	2.384
2.337	2.425	2.392
2.345	2.410	2.399
2.344	2.418	2.403
2.339	2.423	2.406
2.342	2.420	2.404
2.344	2.420	2.406
2.342	2.420	2.418
2.344	2.421	2.417
2.342	2.420	2.420
2.344	2.421	2.414
2.344	2.411	2.407
2.342	2.413	2.409
2.346	2.416	2.406
2.344	2.420	2.393
2.346	2.413	2.387
2.348	2.418	2.384
2.342	2.425	2.384
2.342	2.415	2.379
2.344	2.420	2.376
2.340	2.415	2.390
2.346	2.417	2.398
2.339	2.419	2.401
2.345	2.415	2.403
2.337	2.420	2.395
2.339	2.420	2.399
2.339	2.415	2.407
2.344	2.418	2.405
2.339	2.418	2.395
2.342	2.423	2.380
2.344	2.416	2.380
2.349	2.425	2.391
2.342	2.428	2.402
2.347	2.423	2.404
2.342	2.425	2.405
2.336	2.423	2.396
2.339	2.413	2.397
2.341	2.417	2.392
2.340	2.415	2.392
2.349	2.419	2.393
2.347	2.420	2.392
2.342	2.415	2.401
2.347	2.417	2.406
2.346	2.421	2.403
2.344	2.425	2.408
2.349	2.424	2.407
2.352	2.416	2.407
2.350	2.424	2.404
2.354	2.422	2.405
2.354	2.416	2.395
2.351	2.420	2.387
2.346	2.416	2.387
2.349	2.424	2.382
2.349	2.425	2.378
2.349	2.423	2.375
2.349	2.420	2.373
2.347	2.420	2.372
2.354	2.417	2.370
2.344	2.425	2.361
2.354	2.423	2.363
2.349	2.412	2.370
2.347	2.415	2.377
2.352	2.415	2.394
2.349	2.418	2.405
2.344	2.415	2.407
2.349	2.415	2.402
2.351	2.423	2.400
2.349	2.423	2.400
2.351	2.420	2.400
2.346	2.420	2.403
2.356	2.418	2.405
2.354	2.421	2.407
2.354	2.414	2.425
2.354	2.415	2.431
2.355	2.415	2.422
2.357	2.420	2.412
2.357	2.418	2.422
2.358	2.418	2.424
2.354	2.424	2.420
2.358	2.423	2.412
2.352	2.420	2.415
2.354	2.421	2.419
2.359	2.423	2.419
2.357	2.414	2.429
2.358	2.420	2.443
2.354	2.422	2.455
2.356	2.420	2.459
2.354	2.410	2.459
2.359	2.421	2.450
2.349	2.420	2.440
2.347	2.420	2.436
2.354	2.419	2.440
2.352	2.420	2.441
2.349	2.421	2.442
2.347	2.423	2.442
2.344	2.421	2.443
2.344	2.421	2.447
2.346	2.415	2.449
2.345	2.418	2.454
2.350	2.416	2.449
2.354	2.420	2.428
2.349	2.416	2.415
2.347	2.421	2.406
2.349	2.417	2.412
2.349	2.418	2.426
2.349	2.418	2.434
2.346	2.425	2.430
2.345	2.421	2.424
2.344	2.419	2.422
2.339	2.418	2.419
2.339	2.422	2.417
2.344	2.421	2.407
2.344	2.415	2.407
2.354	2.415	2.406
2.344	2.418	2.397
2.349	2.421	2.402
2.350	2.415	2.401
2.351	2.416	2.402
2.349	2.415	2.410
2.349	2.413	2.419
2.351	2.414	2.412
2.354	2.420	2.422
2.351	2.417	2.415
2.344	2.418	2.420
2.351	2.425	2.424
2.350	2.423	2.433
2.343	2.420	2.439
2.351	2.418	2.441
2.352	2.421	2.441
2.349	2.423	2.431
2.346	2.418	2.417
2.344	2.415	2.409
2.347	2.421	2.413
2.344	2.420	2.407
2.340	2.418	2.402
2.337	2.420	2.397
2.339	2.418	2.397
2.342	2.420	2.396
2.342	2.418	2.391
2.344	2.415	2.387
2.334	2.418	2.390
2.332	2.412	2.397
2.339	2.420	2.402
2.338	2.416	2.402
2.341	2.416	2.402
2.352	2.415	2.405
2.349	2.413	2.409
2.342	2.421	2.412
2.349	2.418	2.427
2.346	2.415	2.424
2.346	2.410	2.425
2.341	2.418	2.419
2.340	2.417	2.417
2.336	2.417	2.417
2.344	2.415	2.420
2.346	2.415	2.419
2.344	2.418	2.423
2.347	2.414	2.417
2.339	2.419	2.410
2.342	2.417	2.405
2.342	2.416	2.394
2.336	2.418	2.384
2.341	2.415	2.380
2.339	2.420	2.373
2.347	2.418	2.370
2.339	2.418	2.370
2.342	2.413	2.388
2.349	2.410	2.397
2.347	2.421	2.406
2.347	2.413	2.397
2.346	2.420	2.399
2.342	2.413	2.410
2.349	2.413	2.414
2.337	2.417	2.407
2.337	2.415	2.404
2.334	2.420	2.397
2.332	2.413	2.395
2.332	2.420	2.377
2.332	2.418	2.373
2.335	2.416	2.370
2.326	2.416	2.364
2.327	2.416	2.363
2.324	2.421	2.364
2.334	2.418	2.371
2.332	2.414	2.370
2.332	2.420	2.371
2.332	2.416	2.370
2.330	2.410	2.370
2.335	2.420	2.364
2.335	2.417	2.363
2.332	2.413	2.367
2.332	2.410	2.370
2.332	2.419	2.373
2.337	2.418	2.382
2.334	2.414	2.382
2.334	2.411	2.381
2.327	2.411	2.384
2.331	2.415	2.377
2.332	2.415	2.370
2.327	2.417	2.367
2.327	2.418	2.363
2.324	2.413	2.354
2.329	2.418	2.353
2.329	2.415	2.338
2.329	2.418	2.337
2.330	2.414	2.338
2.337	2.412	2.343
2.334	2.410	2.342
2.332	2.418	2.343
2.332	2.410	2.336
2.336	2.413	2.333
2.329	2.412	2.334
2.337	2.410	2.337
2.329	2.417	2.345
2.327	2.423	2.355
2.336	2.410	2.371
2.333	2.413	2.361
2.324	2.418	2.355
2.337	2.415	2.358
2.334	2.414	2.371
2.332	2.415	2.373
2.329	2.418	2.373
2.329	2.415	2.370
2.338	2.412	2.370
2.337	2.410	2.376
2.338	2.413	2.378
2.334	2.417	2.387
2.337	2.412	2.388
2.339	2.413	2.382
2.337	2.418	2.378
2.334	2.419	2.380
2.339	2.416	2.375
2.340	2.417	2.372
2.340	2.418	2.352
2.334	2.415	2.360
2.334	2.418	2.360
2.329	2.410	2.364
2.334	2.408	2.367
2.332	2.407	2.369
2.339	2.410	2.370
2.339	2.413	2.377
2.340	2.413	2.390
2.335	2.419	2.394
2.338	2.411	2.407
2.332	2.412	2.409
2.346	2.410	2.407
2.342	2.418	2.407
2.341	2.413	2.420
2.351	2.410	2.423
2.347	2.418	2.426
2.347	2.409	2.426
2.345	2.415	2.432
2.348	2.415	2.425
2.348	2.416	2.418
2.344	2.411	2.406
2.346	2.414	2.408
2.342	2.411	2.407
2.339	2.413	2.414
2.339	2.415	2.410
2.340	2.418	2.417
2.337	2.419	2.408
2.338	2.418	2.407
2.337	2.410	2.402
2.339	2.413	2.400
2.339	2.416	2.411
2.351	2.410	2.409
2.342	2.419	2.412
2.347	2.415	2.425
2.347	2.408	2.434
2.345	2.416	2.434
2.341	2.415	2.432
2.339	2.416	2.441
2.337	2.420	2.437
2.337	2.423	2.433
2.337	2.415	2.441
2.342	2.415	2.453
2.339	2.420	2.459
2.337	2.415	2.451
2.340	2.417	2.444
2.338	2.420	2.439
2.334	2.423	2.442
2.339	2.418	2.446
2.338	2.413	2.450
2.337	2.416	2.453
2.342	2.418	2.467
2.344	2.411	2.469
2.344	2.418	2.464
2.342	2.414	2.461
2.337	2.413	2.459
2.341	2.415	2.462
2.344	2.416	2.462
2.337	2.411	2.469
2.342	2.423	2.462
2.339	2.417	2.461
2.337	2.423	2.460
2.335	2.413	2.456
2.341	2.418	2.442
2.340	2.418	2.442
2.337	2.415	2.431
2.334	2.415	2.438
2.332	2.421	2.443
2.339	2.415	2.447
2.336	2.420	2.452
2.344	2.418	2.459
2.340	2.418	2.477
2.345	2.419	2.490
2.338	2.425	2.497
2.339	2.418	2.493
2.349	2.420	2.497
2.351	2.423	2.508
2.347	2.420	2.515
2.351	2.419	2.516
2.352	2.418	2.520
2.349	2.420	2.525
2.347	2.421	2.523
2.349	2.422	2.520
2.354	2.423	2.515
2.351	2.423	2.510
2.349	2.415	2.491
2.345	2.417	2.476
2.351	2.418	2.464
2.354	2.417	2.459
2.345	2.420	2.451
2.346	2.423	2.451
2.352	2.418	2.463
2.339	2.422	2.486
2.344	2.421	2.496
2.349	2.421	2.491
2.356	2.418	2.493
2.351	2.421	2.496
2.349	2.422	2.512
2.352	2.418	2.510
2.352	2.413	2.495
2.350	2.417	2.496
2.346	2.419	2.501
2.344	2.417	2.509
2.346	2.415	2.511
2.346	2.420	2.506
2.351	2.420	2.498
2.347	2.417	2.489
2.347	2.419	2.487
2.340	2.422	2.490
2.344	2.410	2.487
2.346	2.412	2.484
2.344	2.415	2.476
2.341	2.420	2.466
2.339	2.418	2.459
2.344	2.412	2.460
2.344	2.416	2.448
2.342	2.416	2.439
2.345	2.413	2.424
2.347	2.418	2.416
2.344	2.414	2.424
2.356	2.417	2.442
2.353	2.420	2.446
2.354	2.417	2.444
2.351	2.427	2.457
2.351	2.419	2.454
2.349	2.420	2.452
2.350	2.423	2.463
2.347	2.423	2.469
2.342	2.421	2.469
2.351	2.418	2.466
2.346	2.420	2.456
2.344	2.421	2.447
2.342	2.417	2.444
2.339	2.418	2.438
2.337	2.421	2.437
2.339	2.425	2.429
2.338	2.423	2.422
2.344	2.418	2.424
2.339	2.420	2.423
2.339	2.420	2.420
2.337	2.425	2.417
2.342	2.421	2.419
2.339	2.420	2.423
2.342	2.425	2.439
2.333	2.418	2.429
2.337	2.412	2.424
2.339	2.417	2.412
2.339	2.418	2.397
2.337	2.418	2.394
2.337	2.420	2.394
2.334	2.418	2.400
2.334	2.418	2.397
2.337	2.423	2.397
2.335	2.425	2.390
2.335	2.423	2.380
2.332	2.424	2.370
2.342	2.418	2.370
2.340	2.413	2.360
2.342	2.413	2.357
2.339	2.420	2.360
2.342	2.421	2.365
2.342	2.415	2.373
2.342	2.415	2.377
2.339	2.420	2.387
2.337	2.412	2.393
2.337	2.420	2.381
2.334	2.415	2.385
2.332	2.420	2.383
2.329	2.420	2.381
2.332	2.416	2.382
2.338	2.415	2.365
2.329	2.413	2.361
2.330	2.411	2.357
2.322	2.417	2.353
2.332	2.415	2.361
2.332	2.418	2.358
2.324	2.418	2.353
2.324	2.418	2.356
2.332	2.421	2.363
2.327	2.421	2.368
2.335	2.415	2.375
2.335	2.415	2.387
2.324	2.418	2.386
2.324	2.413	2.384
2.329	2.418	2.376
2.331	2.418	2.370
2.329	2.415	2.358
2.322	2.410	2.343
2.325	2.415	2.345
2.322	2.418	2.344
2.320	2.415	2.347
2.322	2.420	2.346
2.314	2.411	2.338
2.324	2.419	2.340
2.319	2.418	2.348
2.324	2.418	2.367
2.317	2.416	2.380
2.322	2.415	2.392
2.323	2.418	2.409
2.317	2.415	2.409
2.322	2.416	2.397
2.322	2.410	2.389
2.319	2.415	2.377
2.332	2.421	2.378
2.332	2.416	2.382
2.329	2.418	2.393
2.330	2.413	2.391
2.333	2.415	2.390
2.328	2.418	2.387
2.331	2.420	2.378
2.332	2.415	2.367
2.329	2.418	2.365
2.324	2.412	2.359
2.326	2.413	2.371
2.329	2.415	2.373
2.325	2.413	2.380
2.332	2.416	2.377
2.333	2.420	2.377
2.329	2.415	2.376
2.329	2.417	2.382
2.329	2.418	2.380
2.322	2.415	2.382
2.332	2.420	2.389
2.332	2.415	2.395
2.335	2.417	2.392
2.333	2.418	2.395
2.327	2.419	2.402
2.329	2.418	2.407
2.330	2.414	2.414
2.332	2.419	2.416
2.341	2.421	2.410
2.333	2.412	2.412
2.335	2.415	2.423
2.332	2.421	2.424
2.340	2.416	2.427
2.340	2.420	2.422
2.332	2.415	2.425
2.339	2.416	2.428
2.331	2.418	2.429
2.332	2.418	2.424
2.328	2.419	2.420
2.329	2.417	2.418
2.327	2.416	2.419
2.330	2.418	2.417
2.335	2.417	2.422
2.332	2.418	2.422
2.343	2.416	2.417
2.342	2.418	2.414
2.337	2.415	2.424
2.339	2.420	2.425
2.339	2.418	2.422
2.339	2.413	2.417
2.335	2.414	2.412
2.341	2.421	2.404
2.340	2.409	2.406
2.337	2.416	2.404
2.339	2.418	2.392
2.337	2.413	2.389
2.338	2.420	2.387
2.334	2.415	2.383
2.339	2.415	2.387
2.332	2.415	2.397
2.332	2.420	2.406
2.332	2.413	2.425
2.327	2.423	2.426
2.337	2.416	2.434
2.340	2.412	2.453
2.344	2.410	2.449
2.342	2.420	2.444
2.342	2.410	2.437
2.342	2.413	2.433
2.342	2.415	2.441
2.345	2.418	2.436
2.339	2.415	2.432
2.345	2.415	2.432
2.346	2.418	2.431
2.349	2.418	2.434
2.351	2.421	2.449
2.351	2.418	2.443
2.355	2.418	2.447
2.357	2.420	2.448
2.344	2.421	2.441
2.351	2.420	2.433
2.349	2.420	2.436
2.349	2.415	2.440
2.343	2.425	2.432
2.354	2.416	2.424
2.349	2.420	2.407
2.355	2.421	2.409
2.346	2.425	2.407
2.351	2.418	2.425
2.352	2.414	2.441
2.352	2.423	2.451
2.356	2.415	2.459
2.353	2.415	2.439
2.356	2.420	2.436
2.369	2.422	2.439
2.359	2.420	2.424
2.361	2.417	2.424
2.361	2.418	2.422
2.369	2.421	2.423
2.364	2.422	2.422
2.356	2.419	2.420
2.359	2.415	2.415
2.361	2.418	2.422
2.358	2.417	2.414
2.355	2.418	2.417
2.356	2.419	2.435
2.351	2.419	2.440
2.351	2.420	2.433
2.350	2.426	2.441
2.346	2.425	2.454
2.351	2.419	2.455
2.356	2.425	2.453
2.359	2.419	2.460
2.357	2.420	2.460
2.361	2.423	2.459
2.361	2.423	2.447
2.354	2.423	2.446
2.350	2.415	2.446
2.349	2.413	2.442
2.351	2.415	2.421
2.354	2.415	2.422
2.347	2.423	2.412
2.354	2.415	2.417
2.349	2.421	2.412
2.349	2.423	2.419
2.347	2.414	2.424
2.350	2.423	2.429
2.346	2.417	2.440
2.354	2.410	2.444
2.361	2.417	2.444
2.361	2.418	2.444
2.357	2.413	2.441
2.348	2.417	2.441
2.357	2.418	2.434
2.349	2.418	2.415
2.349	2.416	2.409
2.342	2.421	2.412
2.349	2.418	2.415
2.344	2.420	2.416
2.351	2.421	2.420
2.355	2.423	2.425
2.354	2.415	2.425
2.356	2.418	2.431
2.358	2.420	2.449
2.357	2.413	2.451
2.354	2.415	2.458
2.351	2.417	2.462
2.359	2.421	2.459
2.359	2.417	2.456
2.357	2.415	2.446
2.362	2.412	2.441
2.364	2.421	2.440
2.369	2.418	2.425
2.367	2.421	2.409
2.359	2.418	2.407
2.364	2.420	2.415
2.366	2.412	2.424
2.366	2.418	2.436
2.367	2.413	2.436
2.369	2.416	2.441
2.361	2.422	2.432
2.369	2.425	2.434
2.369	2.417	2.431
2.361	2.425	2.427
2.363	2.425	2.425
2.359	2.423	2.423
2.356	2.418	2.424
2.359	2.421	2.441
2.354	2.422	2.464
2.359	2.416	2.466
2.359	2.418	2.459
2.357	2.421	2.459
2.356	2.419	2.454
2.358	2.414	2.451
2.356	2.418	2.444
2.354	2.423	2.435
2.351	2.423	2.430
2.359	2.418	2.425
2.359	2.413	2.422
2.361	2.420	2.411
2.355	2.423	2.393
2.359	2.425	2.377
2.349	2.418	2.370
2.354	2.420	2.370
2.349	2.415	2.365
2.350	2.420	2.365
2.351	2.418	2.365
2.346	2.425	2.373
2.347	2.415	2.385
2.347	2.415	2.397
2.346	2.421	2.399
2.348	2.418	2.400
2.342	2.418	2.393
2.342	2.410	2.392
2.354	2.416	2.392
2.351	2.410	2.390
2.356	2.418	2.386
2.354	2.419	2.390
2.357	2.415	2.389
2.351	2.423	2.397
2.353	2.418	2.404
2.352	2.420	2.412
2.349	2.410	2.410
2.349	2.413	2.407
2.344	2.417	2.408
2.344	2.417	2.401
2.344	2.413	2.387
2.347	2.417	2.387
2.339	2.418	2.379
2.344	2.420	2.386
2.337	2.418	2.383
2.339	2.412	2.388
2.348	2.410	2.387
2.341	2.417	2.394
2.343	2.413	2.398
2.351	2.417	2.397
2.349	2.410	2.392
2.341	2.414	2.385
2.348	2.421	2.387
2.341	2.415	2.387
2.349	2.421	2.386
2.349	2.419	2.411
2.348	2.416	2.417
2.338	2.413	2.425
2.344	2.420	2.422
2.347	2.412	2.424
2.342	2.415	2.426
2.344	2.418	2.412
2.342	2.415	2.405
2.342	2.415	2.397
2.347	2.412	2.397
2.345	2.410	2.394
2.344	2.415	2.405
2.346	2.417	2.416
2.346	2.414	2.425
2.342	2.413	2.449
2.344	2.415	2.453
2.347	2.413	2.453
2.351	2.413	2.442
2.350	2.415	2.439
2.346	2.415	2.437
2.342	2.411	2.425
2.346	2.420	2.413
2.339	2.416	2.404
2.339	2.415	2.414
2.336	2.416	2.420
2.339	2.414	2.422
2.342	2.409	2.414
2.342	2.411	2.406
2.341	2.415	2.406
2.344	2.411	2.407
2.345	2.413	2.404
2.342	2.416	2.400
2.339	2.413	2.392
2.342	2.410	2.387
2.342	2.418	2.384
2.344	2.423	2.390
2.345	2.421	2.400
2.347	2.419	2.397
2.341	2.416	2.394
2.345	2.417	2.390
2.347	2.411	2.379
2.341	2.417	2.388
2.339	2.413	2.388
2.351	2.416	2.387
2.354	2.410	2.392
2.348	2.415	2.397
2.346	2.413	2.399
2.339	2.415	2.392
2.337	2.416	2.393
2.334	2.415	2.395
2.344	2.419	2.408
2.348	2.415	2.405
2.347	2.410	2.424
2.346	2.419	2.427
2.347	2.413	2.428
2.343	2.417	2.421
2.347	2.415	2.409
2.349	2.409	2.401
2.346	2.413	2.402
2.346	2.413	2.405
2.346	2.415	2.407
2.349	2.412	2.422
2.349	2.413	2.432
2.347	2.413	2.428
2.355	2.410	2.426
2.351	2.410	2.419
2.354	2.413	2.415
2.351	2.410	2.414
2.344	2.418	2.417
2.354	2.414	2.424
2.349	2.419	2.423
2.354	2.415	2.417
2.360	2.418	2.414
2.356	2.415	2.424
2.361	2.416	2.436
2.361	2.411	2.449
2.364	2.415	2.462
2.358	2.415	2.459
2.354	2.420	2.448
2.358	2.418	2.457
2.361	2.418	2.461
2.366	2.410	2.471
2.371	2.410	2.474
2.358	2.415	2.474
2.363	2.415	2.479
2.364	2.421	2.478
2.368	2.417	2.478
2.366	2.410	2.469
2.361	2.418	2.459
2.364	2.415	2.449
2.369	2.415	2.451
2.362	2.418	2.444
2.362	2.416	2.438
2.366	2.417	2.446
2.369	2.416	2.446
2.366	2.415	2.456
2.368	2.413	2.462
2.371	2.416	2.452
2.369	2.422	2.453
2.369	2.419	2.453
2.368	2.420	2.456
2.366	2.415	2.457
2.369	2.418	2.462
2.369	2.415	2.464
2.366	2.418	2.462
2.371	2.417	2.457
2.366	2.415	2.462
2.373	2.420	2.461
2.369	2.418	2.464
2.368	2.416	2.461
2.367	2.410	2.464
2.366	2.407	2.460
2.368	2.420	2.470
2.366	2.423	2.466
2.366	2.421	2.476
2.381	2.415	2.477
2.381	2.421	2.486
2.381	2.423	2.479
2.382	2.418	2.469
2.372	2.423	2.469
2.369	2.417	2.471
2.369	2.418	2.474
2.371	2.421	2.473
2.373	2.417	2.470
2.379	2.418	2.479
2.378	2.420	2.489
2.376	2.423	2.490
2.378	2.413	2.513
2.383	2.423	2.507
2.376	2.415	2.508
2.379	2.428	2.505
2.383	2.418	2.495
2.380	2.420	2.483
2.381	2.428	2.474
2.383	2.426	2.464
2.380	2.423	2.459
2.380	2.415	2.444
2.372	2.412	2.444
2.383	2.420	2.463
2.374	2.416	2.471
2.378	2.420	2.471
2.379	2.420	2.466
2.386	2.421	2.461
2.378	2.418	2.459
2.384	2.418	2.456
2.384	2.416	2.450
2.383	2.423	2.449
2.384	2.424	2.444
2.383	2.415	2.446
2.384	2.418	2.454
2.384	2.412	2.453
2.378	2.422	2.476
2.378	2.420	2.490
2.381	2.420	2.509
2.370	2.419	2.525
2.374	2.423	2.535
2.379	2.427	2.534
2.373	2.423	2.535
2.379	2.425	2.532
2.378	2.424	2.520
2.376	2.426	2.509
2.373	2.420	2.476
2.371	2.423	2.461
2.368	2.426	2.442
2.371	2.421	2.440
2.369	2.420	2.434
2.364	2.415	2.432
2.364	2.423	2.431
2.364	2.428	2.429
2.365	2.425	2.431
2.366	2.424	2.434
2.366	2.422	2.434
2.366	2.418	2.427
2.364	2.428	2.426
2.364	2.431	2.421
2.364	2.430	2.437
2.367	2.423	2.442
2.369	2.428	2.446
2.367	2.420	2.452
2.364	2.426	2.446
2.369	2.423	2.437
2.363	2.426	2.435
2.367	2.427	2.438
2.361	2.426	2.430
2.356	2.428	2.424
2.359	2.423	2.426
2.361	2.422	2.424
2.369	2.427	2.424
2.364	2.420	2.425
2.364	2.420	2.417
2.361	2.423	2.414
2.366	2.423	2.404
2.364	2.425	2.407
2.369	2.430	2.415
2.371	2.423	2.424
2.376	2.417	2.431
2.378	2.421	2.449
2.369	2.420	2.441
2.368	2.420	2.451
2.369	2.423	2.446
2.369	2.428	2.442
2.367	2.420	2.446
2.369	2.420	2.441
2.369	2.418	2.440
2.369	2.420	2.436
2.369	2.417	2.419
2.366	2.428	2.412
2.361	2.421	2.409
2.361	2.424	2.415
2.359	2.423	2.419
2.351	2.427	2.423
2.356	2.425	2.424
2.354	2.426	2.429
2.354	2.427	2.436
2.356	2.428	2.429
2.361	2.424	2.424
2.359	2.423	2.419
2.358	2.430	2.418
2.357	2.428	2.410
2.348	2.426	2.402
2.354	2.426	2.411
2.352	2.425	2.422
2.354	2.415	2.414
2.357	2.420	2.405
2.354	2.421	2.400
2.359	2.423	2.387
2.359	2.423	2.377
2.355	2.423	2.366
2.350	2.417	2.367
2.354	2.423	2.379
2.356	2.430	2.387
2.357	2.428	2.389
2.354	2.426	2.394
2.359	2.415	2.403
2.354	2.421	2.394
2.351	2.423	2.392
2.355	2.423	2.387
2.343	2.425	2.386
2.349	2.420	2.380
2.351	2.424	2.388
2.351	2.423	2.395
2.349	2.423	2.398
2.354	2.425	2.400
2.351	2.427	2.403
2.349	2.427	2.408
2.350	2.426	2.404
2.345	2.425	2.394
2.347	2.423	2.400
2.347	2.422	2.402
2.347	2.425	2.394
2.347	2.421	2.400
2.346	2.425	2.404
2.349	2.425	2.399
2.345	2.423	2.407
2.348	2.425	2.412
2.347	2.424	2.417
2.342	2.426	2.425
2.351	2.425	2.423
2.342	2.425	2.425
2.349	2.427	2.424
2.351	2.425	2.441
2.351	2.425	2.441
2.352	2.426	2.431
2.347	2.425	2.423
2.349	2.425	2.407
2.352	2.420	2.402
2.347	2.420	2.394
2.358	2.425	2.380
2.349	2.418	2.379
2.351	2.421	2.388
2.342	2.420	2.397
2.345	2.428	2.395
2.352	2.425	2.399
2.364	2.420	2.403
2.358	2.420	2.404
2.356	2.426	2.413
2.354	2.419	2.416
2.354	2.426	2.425
2.351	2.418	2.420
2.354	2.421	2.424
2.352	2.424	2.418
2.350	2.426	2.404
2.348	2.424	2.399
2.346	2.421	2.394
2.345	2.423	2.406
2.346	2.423	2.415
2.344	2.422	2.429
2.339	2.425	2.424
2.339	2.430	2.431
2.340	2.420	2.441
2.352	2.427	2.444
2.346	2.423	2.442
2.351	2.431	2.433
2.356	2.425	2.424
2.361	2.420	2.420
2.356	2.425	2.420
2.358	2.423	2.424
2.351	2.425	2.426
2.354	2.423	2.424
2.358	2.430	2.442
2.359	2.425	2.441
2.347	2.428	2.437
2.354	2.430	2.435
2.349	2.428	2.432
2.346	2.429	2.425
2.348	2.424	2.417
2.359	2.429	2.417
2.349	2.428	2.415
2.353	2.425	2.424
2.349	2.423	2.429
2.349	2.423	2.439
2.344	2.424	2.459
2.351	2.428	2.466
2.354	2.431	2.477
2.351	2.425	2.483
2.359	2.430	2.471
2.361	2.426	2.461
2.354	2.427	2.462
2.358	2.429	2.456
2.354	2.425	2.449
2.356	2.431	2.444
2.356	2.423	2.437
2.354	2.423	2.431
2.360	2.428	2.428
2.358	2.427	2.439
2.366	2.430	2.442
2.372	2.424	2.451
2.366	2.430	2.468
2.369	2.425	2.483
2.369	2.426	2.479
2.364	2.426	2.473
2.357	2.428	2.454
2.350	2.428	2.451
2.356	2.425	2.439
2.356	2.426	2.438
2.355	2.428	2.442
2.355	2.425	2.441
2.356	2.420	2.441
2.361	2.427	2.452
2.364	2.428	2.451
2.369	2.423	2.451
2.368	2.423	2.446
2.364	2.425	2.436
2.369	2.424	2.429
2.364	2.432	2.427
2.363	2.432	2.429
2.361	2.426	2.434
2.364	2.428	2.426
2.363	2.423	2.422
2.359	2.425	2.421
2.364	2.423	2.422
2.366	2.423	2.420
2.369	2.429	2.406
2.367	2.428	2.410
2.373	2.430	2.414
2.366	2.416	2.435
2.358	2.425	2.442
2.358	2.423	2.446
2.359	2.421	2.451
2.355	2.426	2.452
2.354	2.423	2.456
2.354	2.424	2.451
2.352	2.422	2.439
2.354	2.420	2.437
2.359	2.425	2.436
2.356	2.425	2.444
2.361	2.426	2.454
2.361	2.424	2.462
2.360	2.423	2.456
2.366	2.423	2.449
2.361	2.425	2.442
2.359	2.423	2.431
2.356	2.422	2.430
2.352	2.420	2.433
2.356	2.425	2.426
2.356	2.423	2.429
2.364	2.423	2.429
2.361	2.421	2.427
2.363	2.427	2.428
2.361	2.424	2.432
2.355	2.428	2.439
2.360	2.428	2.450
2.366	2.430	2.446
2.359	2.418	2.456
2.356	2.422	2.465
2.359	2.423	2.463
2.353	2.422	2.467
2.354	2.423	2.473
2.354	2.423	2.488
2.355	2.430	2.499
2.356	2.417	2.503
2.351	2.420	2.510
2.351	2.423	2.496
2.347	2.425	2.486
2.351	2.428	2.478
2.348	2.428	2.483
2.351	2.423	2.476
2.351	2.425	2.466
2.356	2.420	2.467
2.354	2.423	2.459
2.351	2.425	2.454
2.356	2.428	2.445
2.354	2.425	2.444
2.356	2.426	2.439
2.356	2.426	2.438
2.359	2.417	2.444
2.359	2.431	2.449
2.357	2.423	2.456
2.354	2.427	2.441
2.354	2.425	2.438
2.354	2.420	2.432
2.357	2.423	2.434
2.347	2.418	2.441
2.349	2.418	2.458
2.351	2.418	2.461
2.346	2.420	2.474
2.350	2.416	2.474
2.349	2.423	2.476
2.349	2.425	2.466
2.342	2.420	2.476
2.349	2.420	2.485
2.349	2.428	2.491
2.346	2.422	2.489
2.352	2.422	2.486
2.354	2.423	2.471
2.359	2.425	2.468
2.351	2.427	2.472
2.356	2.424	2.471
2.356	2.419	2.462
2.352	2.428	2.451
2.346	2.420	2.440
2.349	2.418	2.441
2.347	2.425	2.441
2.349	2.423	2.444
2.347	2.420	2.434
2.344	2.415	2.428
2.342	2.423	2.424
2.346	2.420	2.416
2.347	2.419	2.412
2.349	2.424	2.402
2.348	2.420	2.392
2.342	2.420	2.394
2.342	2.420	2.408
2.345	2.421	2.405
2.341	2.428	2.410
2.344	2.420	2.417
2.351	2.427	2.414
2.347	2.422	2.431
2.356	2.416	2.444
2.351	2.420	2.453
2.347	2.423	2.451
2.349	2.416	2.441
2.347	2.421	2.427
2.345	2.427	2.420
2.346	2.418	2.419
2.344	2.418	2.424
2.346	2.415	2.428
2.341	2.421	2.425
2.347	2.423	2.417
2.346	2.428	2.408
2.342	2.427	2.409
2.340	2.428	2.420
2.339	2.423	2.425
2.347	2.421	2.434
2.347	2.417	2.453
2.352	2.425	2.460
2.351	2.425	2.461
2.351	2.423	2.459
2.349	2.425	2.462
2.351	2.421	2.459
2.352	2.420	2.462
2.346	2.425	2.455
2.342	2.418	2.453
2.348	2.420	2.462
2.352	2.423	2.464
2.349	2.424	2.456
2.351	2.426	2.451
2.349	2.423	2.446
2.346	2.423	2.443
2.352	2.420	2.448
2.350	2.423	2.444
2.344	2.425	2.449
2.344	2.420	2.444
2.352	2.423	2.450
2.354	2.431	2.449
2.354	2.425	2.449
2.354	2.424	2.442
2.356	2.427	2.439
2.352	2.425	2.436
2.349	2.414	2.419
2.340	2.423	2.425
2.339	2.414	2.424
2.339	2.418	2.424
2.347	2.420	2.439
2.349	2.420	2.448
2.349	2.422	2.435
2.349	2.423	2.431
2.349	2.417	2.429
2.349	2.421	2.429
2.341	2.426	2.420
2.351	2.425	2.412
2.349	2.418	2.413
2.359	2.423	2.407
2.363	2.418	2.408
2.358	2.423	2.400
2.361	2.428	2.400
2.363	2.427	2.407
2.365	2.427	2.408
2.358	2.423	2.406
2.361	2.428	2.394
2.364	2.421	2.390
2.361	2.420	2.395
2.368	2.424	2.410
2.369	2.418	2.422
2.361	2.415	2.421
2.367	2.420	2.419
2.365	2.418	2.420
2.361	2.425	2.420
2.366	2.422	2.412
2.369	2.420	2.407
2.358	2.423	2.400
2.363	2.420	2.394
2.361	2.424	2.392
2.354	2.423	2.407
2.364	2.426	2.417
2.361	2.418	2.424
2.361	2.423	2.429
2.369	2.428	2.429
2.366	2.425	2.436
2.368	2.423	2.434
2.361	2.425	2.427
2.363	2.423	2.425
2.359	2.417	2.419
2.361	2.423	2.419
2.367	2.425	2.410
2.361	2.424	2.401
2.361	2.431	2.406
2.366	2.426	2.414
2.366	2.418	2.423
2.361	2.423	2.423
2.366	2.418	2.441
2.359	2.427	2.447
2.362	2.423	2.458
2.363	2.416	2.462
2.356	2.418	2.462
2.357	2.423	2.453
2.359	2.420	2.454
2.359	2.417	2.449
2.368	2.421	2.446
2.359	2.420	2.452
2.356	2.423	2.433
2.369	2.423	2.427
2.368	2.423	2.427
2.365	2.420	2.419
2.371	2.417	2.409
2.366	2.423	2.402
2.369	2.425	2.407
2.368	2.428	2.407
2.359	2.421	2.402
2.364	2.423	2.397
2.362	2.425	2.394
2.362	2.421	2.387
2.356	2.418	2.397
2.361	2.418	2.407
2.361	2.417	2.424
2.359	2.428	2.425
2.358	2.418	2.440
2.361	2.420	2.447
2.363	2.422	2.459
2.362	2.425	2.452
2.353	2.424	2.445
2.357	2.423	2.434
2.354	2.419	2.429
2.349	2.424	2.425
2.354	2.414	2.429
2.354	2.423	2.427
2.354	2.420	2.431
2.356	2.423	2.448
2.352	2.426	2.452
2.344	2.425	2.456
2.347	2.421	2.471
2.344	2.428	2.486
2.344	2.423	2.487
2.351	2.421	2.478
2.349	2.420	2.479
2.351	2.426	2.477
2.356	2.421	2.476
2.354	2.422	2.469
2.352	2.417	2.463
2.348	2.430	2.452
2.361	2.425	2.444
2.359	2.424	2.426
2.356	2.424	2.423
2.361	2.430	2.424
2.352	2.420	2.414
2.351	2.425	2.425
2.352	2.423	2.424
2.350	2.422	2.429
2.351	2.424	2.436
2.358	2.423	2.441
2.356	2.425	2.441
2.351	2.425	2.457
2.356	2.427	2.468
2.357	2.427	2.476
2.356	2.423	2.479
2.362	2.422	2.483
2.363	2.423	2.478
2.347	2.425	2.474
2.358	2.426	2.464
2.359	2.425	2.459
2.361	2.423	2.461
2.358	2.425	2.451
2.351	2.423	2.453
2.349	2.420	2.442
2.347	2.420	2.424
2.347	2.421	2.419
2.345	2.421	2.415
2.347	2.423	2.416
2.354	2.425	2.428
2.359	2.420	2.429
2.356	2.420	2.427
2.352	2.427	2.439
2.359	2.432	2.432
2.352	2.423	2.426
2.346	2.430	2.424
2.350	2.430	2.424
2.357	2.423	2.423
2.351	2.423	2.422
2.359	2.425	2.426
2.356	2.425	2.427
2.361	2.426	2.418
2.366	2.423	2.414
2.357	2.428	2.419
2.353	2.424	2.432
2.345	2.420	2.437
2.354	2.420	2.426
2.354	2.425	2.416
2.346	2.420	2.407
2.351	2.418	2.407
2.349	2.431	2.402
2.351	2.428	2.403
2.347	2.428	2.405
2.342	2.428	2.395
2.351	2.421	2.385
2.349	2.420	2.382
2.341	2.421	2.378
2.342	2.426	2.383
2.339	2.425	2.382
2.344	2.425	2.383
2.339	2.425	2.385
2.342	2.427	2.394
2.338	2.423	2.394
2.346	2.423	2.402
2.346	2.430	2.404
2.347	2.424	2.406
2.346	2.425	2.410
2.351	2.425	2.405
2.354	2.423	2.408
2.344	2.419	2.416
2.342	2.422	2.408
2.338	2.420	2.407
2.336	2.420	2.407
2.344	2.421	2.422
2.342	2.420	2.422
2.339	2.422	2.419
2.349	2.429	2.424
2.346	2.428	2.438
2.339	2.423	2.436
2.339	2.413	2.451
2.349	2.421	2.457
2.345	2.425	2.459
2.351	2.423	2.455
2.347	2.417	2.451
2.354	2.420	2.446
2.344	2.425	2.439
2.346	2.423	2.437
2.342	2.425	2.422
2.340	2.421	2.419
2.343	2.418	2.407
2.351	2.425	2.392
2.349	2.430	2.410
2.349	2.430	2.416
2.356	2.423	2.418
2.354	2.422	2.416
2.351	2.425	2.406
2.359	2.423	2.399
2.357	2.423	2.395
2.358	2.428	2.383
2.349	2.415	2.380
2.354	2.423	2.379
2.356	2.422	2.389
2.356	2.420	2.392
2.353	2.423	2.397
2.356	2.419	2.406
2.354	2.422	2.415
2.351	2.419	2.414
2.357	2.418	2.420
2.353	2.422	2.414
2.349	2.420	2.406
2.356	2.420	2.403
2.356	2.425	2.395
2.349	2.420	2.392
2.354	2.425	2.388
2.356	2.428	2.382
2.352	2.425	2.377
2.358	2.422	2.369
2.357	2.418	2.378
2.354	2.417	2.376
2.354	2.422	2.385
2.346	2.425	2.394
2.346	2.425	2.406
2.356	2.426	2.417
2.351	2.425	2.418
2.351	2.416	2.424
2.353	2.418	2.436
2.346	2.423	2.436
2.349	2.423	2.432
2.351	2.423	2.419
2.349	2.421	2.415
2.349	2.419	2.412
2.356	2.422	2.407
2.356	2.418	2.406
2.354	2.418	2.407
2.347	2.421	2.409
2.358	2.415	2.406
2.354	2.422	2.392
2.361	2.425	2.400
2.356	2.425	2.398
2.356	2.416	2.405
2.359	2.423	2.405
2.359	2.426	2.390
2.362	2.421	2.390
2.353	2.422	2.384
2.354	2.420	2.387
2.351	2.420	2.392
2.344	2.426	2.394
2.346	2.419	2.400
2.344	2.418	2.398
2.344	2.421	2.387
2.341	2.418	2.387
2.349	2.423	2.396
2.344	2.421	2.415
2.340	2.420	2.425
2.347	2.423	2.430
2.342	2.421	2.425
2.349	2.425	2.432
2.346	2.418	2.435
2.346	2.419	2.438
2.346	2.420	2.442
2.339	2.423	2.442
2.344	2.413	2.438
2.338	2.415	2.429
2.344	2.423	2.412
2.349	2.418	2.407
2.349	2.419	2.394
2.351	2.415	2.407
2.356	2.415	2.424
2.358	2.411	2.424
2.361	2.415	2.422
2.363	2.418	2.412
2.357	2.413	2.399
2.356	2.415	2.390
2.357	2.418	2.375
2.354	2.413	2.365
2.344	2.410	2.367
2.353	2.418	2.373
2.349	2.418	2.382
2.351	2.416	2.397
2.353	2.419	2.402
2.349	2.420	2.397
2.351	2.415	2.398
2.351	2.419	2.395
2.356	2.417	2.385
2.351	2.423	2.380
2.351	2.415	2.377
2.347	2.420	2.378
2.352	2.415	2.389
2.354	2.425	2.389
2.353	2.421	2.392
2.349	2.419	2.394
2.357	2.419	2.387
2.361	2.420	2.386
2.359	2.423	2.393
2.351	2.423	2.407
2.351	2.415	2.417
2.349	2.423	2.424
2.346	2.418	2.417
2.349	2.418	2.412
2.351	2.418	2.417
2.347	2.417	2.410
2.344	2.416	2.407
2.343	2.419	2.407
2.343	2.420	2.409
2.349	2.417	2.420
2.351	2.418	2.411
2.353	2.418	2.419
2.351	2.423	2.429
2.347	2.421	2.442
2.349	2.413	2.446
2.346	2.419	2.450
2.346	2.420	2.444
2.349	2.422	2.451
2.354	2.423	2.462
2.351	2.425	2.462
2.357	2.426	2.464
2.348	2.418	2.462
2.351	2.420	2.453
2.346	2.418	2.450
2.349	2.416	2.439
2.347	2.421	2.432
2.349	2.416	2.435
2.347	2.422	2.435
2.339	2.423	2.436
2.344	2.423	2.432
2.345	2.418	2.431
2.344	2.421	2.436
2.342	2.425	2.439
2.336	2.411	2.452
2.339	2.423	2.452
2.344	2.420	2.454
2.351	2.426	2.458
2.342	2.420	2.459
2.346	2.415	2.456
2.351	2.421	2.453
2.345	2.418	2.447
2.347	2.420	2.442
2.344	2.416	2.432
2.346	2.415	2.424
2.339	2.419	2.428
2.329	2.414	2.416
2.334	2.413	2.400
2.330	2.413	2.386
2.336	2.413	2.383
2.339	2.415	2.383
2.337	2.413	2.377
2.342	2.418	2.374
2.339	2.418	2.388
2.340	2.420	2.407
2.341	2.415	2.406
2.342	2.418	2.407
2.346	2.415	2.400
2.339	2.416	2.397
2.340	2.417	2.393
2.339	2.421	2.387
2.342	2.417	2.385
2.334	2.418	2.377
2.341	2.420	2.378
2.347	2.423	2.368
2.344	2.417	2.371
2.339	2.417	2.377
2.338	2.421	2.387
2.339	2.421	2.394
2.339	2.418	2.392
2.337	2.418	2.399
2.336	2.418	2.410
2.336	2.415	2.407
2.339	2.420	2.407
2.334	2.423	2.407
2.339	2.421	2.415
2.341	2.419	2.410
2.342	2.414	2.407
2.337	2.417	2.402
2.344	2.421	2.407
2.339	2.423	2.413
2.344	2.417	2.399
2.346	2.418	2.397
2.347	2.417	2.407
2.343	2.418	2.417
2.340	2.415	2.427
2.342	2.415	2.423
2.340	2.417	2.417
2.337	2.413	2.407
2.334	2.415	2.409
2.334	2.418	2.422
2.337	2.416	2.426
2.332	2.415	2.426
2.334	2.414	2.424
2.338	2.420	2.412
2.340	2.415	2.402
2.340	2.423	2.390
2.339	2.423	2.387
2.339	2.413	2.386
2.334	2.417	2.382
2.344	2.415	2.380
2.337	2.415	2.390
2.332	2.413	2.400
2.336	2.416	2.404
2.339	2.418	2.407
2.341	2.416	2.402
2.344	2.414	2.397
2.346	2.403	2.397
2.343	2.410	2.394
2.342	2.418	2.400
2.342	2.413	2.415
2.339	2.420	2.423
2.340	2.410	2.434
2.341	2.412	2.432
2.337	2.413	2.438
2.340	2.416	2.442
2.334	2.416	2.451
2.331	2.421	2.452
2.334	2.414	2.461
2.344	2.406	2.463
2.338	2.411	2.458
2.340	2.415	2.453
2.339	2.417	2.445
2.337	2.413	2.437
2.337	2.411	2.436
2.334	2.410	2.434
2.334	2.409	2.434
2.341	2.412	2.433
2.327	2.411	2.432
2.340	2.415	2.439
2.334	2.412	2.439
2.334	2.420	2.442
2.342	2.410	2.438
2.342	2.410	2.441
2.332	2.418	2.434
2.332	2.418	2.424
2.332	2.421	2.420
2.334	2.411	2.414
2.333	2.415	2.410
2.335	2.413	2.415
2.339	2.417	2.412
2.346	2.421	2.406
2.352	2.419	2.408
2.348	2.413	2.407
2.349	2.415	2.414
2.344	2.418	2.419
2.349	2.418	2.423
2.344	2.418	2.424
2.345	2.413	2.431
2.346	2.417	2.432
2.349	2.410	2.442
2.344	2.415	2.446
2.339	2.415	2.451
2.339	2.414	2.442
2.339	2.417	2.436
2.339	2.419	2.441
2.342	2.415	2.439
2.341	2.421	2.434
2.339	2.423	2.434
2.337	2.410	2.446
2.332	2.416	2.456
2.339	2.413	2.453
2.342	2.415	2.454
2.344	2.410	2.452
2.342	2.418	2.446
2.338	2.418	2.442
2.340	2.414	2.429
2.339	2.413	2.424
2.339	2.410	2.418
2.337	2.413	2.412
2.339	2.410	2.429
2.338	2.415	2.436
2.341	2.420	2.432
2.339	2.417	2.426
2.341	2.417	2.407
2.336	2.415	2.402
2.342	2.415	2.405
2.347	2.418	2.424
2.346	2.410	2.436
2.344	2.418	2.451
2.341	2.415	2.463
2.349	2.415	2.478
2.339	2.416	2.483
2.342	2.418	2.481
2.343	2.418	2.469
2.341	2.413	2.464
2.337	2.409	2.463
2.337	2.415	2.462
2.339	2.416	2.464
2.337	2.408	2.476
2.342	2.413	2.478
2.339	2.413	2.476
2.338	2.411	2.478
2.350	2.415	2.482
2.342	2.417	2.476
2.344	2.416	2.464
2.340	2.423	2.462
2.344	2.421	2.460
2.344	2.411	2.446
2.343	2.410	2.437
2.342	2.413	2.424
2.339	2.411	2.419
2.342	2.414	2.406
2.334	2.410	2.406
2.339	2.406	2.405
2.332	2.408	2.407
2.337	2.410	2.415
2.327	2.420	2.419
2.332	2.423	2.426
2.332	2.415	2.443
2.342	2.412	2.461
2.344	2.413	2.476
2.344	2.420	2.487
2.346	2.413	2.493
2.350	2.413	2.491
2.346	2.412	2.485
2.350	2.416	2.466
2.351	2.416	2.449
2.339	2.410	2.436
2.339	2.413	2.432
2.335	2.413	2.424
2.339	2.415	2.433
2.342	2.417	2.424
2.335	2.415	2.423
2.339	2.418	2.420
2.340	2.423	2.426
2.334	2.419	2.432
2.334	2.417	2.434
2.334	2.415	2.424
2.335	2.413	2.429
2.336	2.415	2.431
2.334	2.411	2.429
2.337	2.413	2.431
2.334	2.416	2.424
2.332	2.415	2.415
2.329	2.413	2.412
2.339	2.410	2.414
2.340	2.417	2.416
2.340	2.415	2.409
2.336	2.415	2.407
2.337	2.415	2.403
2.332	2.418	2.400
2.337	2.418	2.392
2.337	2.415	2.396
2.329	2.418	2.404
2.334	2.418	2.412
2.334	2.418	2.417
2.332	2.416	2.409
2.327	2.412	2.406
2.334	2.413	2.422
2.332	2.413	2.420
2.339	2.411	2.431
2.341	2.417	2.436
2.337	2.418	2.430
2.339	2.413	2.424
2.339	2.413	2.403
2.343	2.415	2.397
2.337	2.410	2.392
2.339	2.409	2.400
2.346	2.423	2.391
2.344	2.415	2.384
2.341	2.413	2.384
2.342	2.413	2.388
2.344	2.420	2.384
2.344	2.415	2.397
2.345	2.414	2.412
2.348	2.418	2.414
2.351	2.418	2.415
2.347	2.418	2.419
2.342	2.418	2.427
2.349	2.421	2.437
2.339	2.416	2.444
2.341	2.410	2.447
2.339	2.415	2.444
2.340	2.421	2.440
2.338	2.420	2.437
2.342	2.424	2.436
2.344	2.413	2.441
2.337	2.417	2.443
2.342	2.415	2.432
2.337	2.411	2.432
2.340	2.416	2.424
2.340	2.417	2.419
2.338	2.422	2.429
2.339	2.413	2.432
2.339	2.411	2.437
2.347	2.418	2.442
2.342	2.419	2.447
2.337	2.419	2.446
2.341	2.415	2.441
2.342	2.420	2.427
2.337	2.420	2.413
2.343	2.418	2.416
2.340	2.415	2.409
2.334	2.420	2.400
2.334	2.419	2.389
2.337	2.415	2.387
2.339	2.412	2.384
2.339	2.421	2.384
2.342	2.420	2.389
2.345	2.418	2.407
2.354	2.417	2.412
2.357	2.422	2.422
2.359	2.415	2.428
2.356	2.418	2.439
2.356	2.414	2.444
2.354	2.416	2.444
2.354	2.417	2.433
2.354	2.415	2.429
2.349	2.418	2.422
2.353	2.418	2.410
2.349	2.415	2.407
2.344	2.419	2.392
2.346	2.413	2.393
2.351	2.420	2.397
2.339	2.418	2.394
2.341	2.410	2.388
2.339	2.415	2.382
2.340	2.417	2.392
2.343	2.415	2.401
2.348	2.410	2.426
2.342	2.413	2.427
2.347	2.412	2.429
2.346	2.417	2.436
2.349	2.412	2.436
2.348	2.417	2.443
2.351	2.415	2.441
2.342	2.418	2.457
2.344	2.418	2.463
2.343	2.420	2.471
2.344	2.425	2.473
2.347	2.415	2.466
2.346	2.415	2.453
2.354	2.419	2.452
2.344	2.417	2.433
2.346	2.416	2.439
2.342	2.415	2.442
2.350	2.412	2.442
2.342	2.420	2.441
2.349	2.418	2.447
2.342	2.417	2.441
2.344	2.418	2.449
2.351	2.420	2.449
2.348	2.420	2.446
2.354	2.415	2.462
2.356	2.421	2.460
2.357	2.420	2.467
2.362	2.418	2.471
2.361	2.420	2.473
2.352	2.423	2.473
2.356	2.416	2.469
2.354	2.418	2.462
2.355	2.420	2.446
2.349	2.418	2.442
2.351	2.415	2.433
2.339	2.418	2.433
2.351	2.413	2.432
2.344	2.418	2.440
2.339	2.415	2.462
2.342	2.419	2.469
2.344	2.419	2.478
2.344	2.419	2.495
2.354	2.408	2.496
2.349	2.411	2.494
2.355	2.415	2.499
2.360	2.420	2.505
2.358	2.410	2.515
2.359	2.420	2.516
2.354	2.417	2.510
2.361	2.415	2.508
2.350	2.418	2.511
2.356	2.418	2.513
2.349	2.419	2.493
2.359	2.419	2.494
2.354	2.415	2.489
2.356	2.418	2.487
2.349	2.413	2.488
2.352	2.418	2.496
2.356	2.415	2.495
2.351	2.418	2.490
2.359	2.417	2.479
2.347	2.415	2.467
2.357	2.420	2.459
2.347	2.418	2.448
2.346	2.416	2.446
2.357	2.417	2.442
2.352	2.411	2.437
2.356	2.417	2.442
2.354	2.419	2.451
2.344	2.413	2.465
2.344	2.421	2.475
2.355	2.420	2.478
2.350	2.419	2.479
2.349	2.417	2.484
2.354	2.423	2.485
2.354	2.429	2.477
2.354	2.419	2.471
2.353	2.417	2.463
2.351	2.418	2.464
2.349	2.415	2.462
2.342	2.420	2.467
2.344	2.415	2.476
2.342	2.420	2.472
2.344	2.420	2.469
2.347	2.422	2.459
2.347	2.418	2.462
2.346	2.418	2.454
2.351	2.423	2.459
2.344	2.423	2.456
2.354	2.427	2.455
2.354	2.424	2.456
2.354	2.415	2.451
2.352	2.421	2.446
2.349	2.423	2.446
2.356	2.423	2.448
2.356	2.421	2.459
2.354	2.415	2.457
2.349	2.423	2.454
2.355	2.420	2.459
2.356	2.421	2.442
2.348	2.417	2.442
2.349	2.416	2.439
2.347	2.412	2.439
2.351	2.421	2.445
2.351	2.418	2.442
2.361	2.418	2.442
2.366	2.414	2.432
2.369	2.418	2.432
2.361	2.413	2.429
2.357	2.418	2.434
2.361	2.418	2.443
2.362	2.418	2.445
2.361	2.412	2.444
2.361	2.417	2.432
2.359	2.414	2.432
2.354	2.420	2.424
2.359	2.422	2.418
2.365	2.418	2.417
2.355	2.418	2.412
2.361	2.423	2.418
2.361	2.421	2.414
2.356	2.418	2.417
2.363	2.415	2.416
2.359	2.418	2.426
2.358	2.418	2.422
2.352	2.418	2.427
2.353	2.415	2.442
2.343	2.417	2.444
2.349	2.413	2.449
2.347	2.415	2.442
2.351	2.418	2.434
2.351	2.420	2.440
2.356	2.422	2.446
2.354	2.420	2.454
2.354	2.417	2.442
2.354	2.417	2.439
2.351	2.424	2.428
2.351	2.424	2.434
2.347	2.419	2.424
2.351	2.418	2.424
2.346	2.420	2.428
2.347	2.418	2.424
2.351	2.415	2.424
2.344	2.420	2.424
2.359	2.415	2.424
2.351	2.415	2.428
2.356	2.420	2.441
2.351	2.420	2.450
2.351	2.418	2.450
2.351	2.418	2.439
2.352	2.423	2.437
2.352	2.422	2.426
2.355	2.420	2.424
2.353	2.420	2.424
2.351	2.418	2.426
2.356	2.417	2.425
2.352	2.418	2.424
2.356	2.424	2.410
2.358	2.425	2.411
2.364	2.415	2.410
2.361	2.415	2.409
2.359	2.416	2.409
2.358	2.418	2.410
2.352	2.415	2.410
2.356	2.415	2.406
2.361	2.418	2.404
2.361	2.411	2.407
2.358	2.423	2.417
2.354	2.418	2.425
2.351	2.423	2.432
2.356	2.423	2.439
2.357	2.418	2.444
2.352	2.415	2.440
2.356	2.417	2.447
2.359	2.418	2.452
2.359	2.411	2.452
2.356	2.416	2.455
2.351	2.415	2.446
2.351	2.413	2.424
2.362	2.418	2.417
2.353	2.421	2.414
2.350	2.424	2.425
2.351	2.425	2.424
2.352	2.411	2.425
2.351	2.421	2.422
2.356	2.425	2.429
2.349	2.417	2.421
2.359	2.409	2.420
2.357	2.418	2.392
2.356	2.420	2.383
2.343	2.413	2.372
2.344	2.415	2.369
2.351	2.418	2.358
2.348	2.412	2.361
2.344	2.415	2.373
2.351	2.415	2.377
2.349	2.418	2.377
2.347	2.414	2.382
2.345	2.419	2.383
2.347	2.422	2.392
2.352	2.418	2.389
2.349	2.417	2.385
2.351	2.415	2.387
2.344	2.415	2.375
2.349	2.415	2.370
2.349	2.418	2.373
2.347	2.418	2.367
2.340	2.415	2.362
2.345	2.418	2.363
2.342	2.424	2.358
2.347	2.419	2.362
2.346	2.408	2.370
2.346	2.415	2.370
2.339	2.417	2.383
2.354	2.418	2.382
2.352	2.417	2.387
2.351	2.420	2.380
2.342	2.418	2.381
2.354	2.413	2.380
2.356	2.415	2.377
2.356	2.420	2.378
2.356	2.420	2.374
2.361	2.422	2.383
2.359	2.423	2.382
2.362	2.420	2.373
2.359	2.420	2.370
2.361	2.423	2.362
2.366	2.420	2.364
2.366	2.421	2.363
2.361	2.420	2.369
2.364	2.418	2.368
2.365	2.425	2.372
2.364	2.425	2.377
2.364	2.418	2.382
2.360	2.424	2.385
2.368	2.424	2.387
2.364	2.419	2.388
2.364	2.418	2.394
2.368	2.421	2.400
2.371	2.415	2.411
2.358	2.416	2.424
2.364	2.415	2.434
2.359	2.417	2.441
2.358	2.420	2.449
2.358	2.417	2.452
2.359	2.416	2.449
2.361	2.419	2.444
2.361	2.421	2.446
2.364	2.418	2.447
2.358	2.420	2.446
2.361	2.414	2.442
2.359	2.420	2.428
2.362	2.417	2.422
2.362	2.421	2.414
2.364	2.417	2.410
2.361	2.413	2.412
2.366	2.421	2.409
2.361	2.419	2.407
2.363	2.418	2.422
2.363	2.419	2.437
2.364	2.414	2.449
2.365	2.423	2.462
2.369	2.415	2.478
2.366	2.421	2.493
2.369	2.423	2.493
2.369	2.425	2.487
2.368	2.417	2.483
2.368	2.420	2.496
2.374	2.416	2.485
2.369	2.418	2.479
2.368	2.423	2.465
2.368	2.422	2.457
2.378	2.413	2.446
2.373	2.420	2.446
2.374	2.420	2.446
2.379	2.423	2.448
2.376	2.423	2.444
2.374	2.423	2.464
2.381	2.420	2.476
2.374	2.418	2.478
2.372	2.423	2.462
2.371	2.420	2.463
2.366	2.423	2.459
2.365	2.423	2.453
2.368	2.427	2.444
2.366	2.418	2.439
2.369	2.420	2.436
2.366	2.421	2.433
2.366	2.418	2.429
2.366	2.425	2.434
2.369	2.420	2.441
2.368	2.416	2.431
2.377	2.417	2.434
2.373	2.423	2.439
2.374	2.420	2.438
2.373	2.419	2.442
2.371	2.421	2.452
2.369	2.425	2.459
2.367	2.426	2.476
2.366	2.418	2.490
2.359	2.421	2.492
2.359	2.422	2.482
2.364	2.420	2.476
2.364	2.420	2.463
2.359	2.423	2.461
2.366	2.420	2.469
2.364	2.425	2.466
2.364	2.421	2.462
2.366	2.422	2.467
2.364	2.423	2.465
2.369	2.421	2.466
2.363	2.423	2.469
2.366	2.418	2.469
2.368	2.420	2.474
2.366	2.421	2.471
2.366	2.417	2.466
2.369	2.418	2.452
2.363	2.427	2.439
2.369	2.419	2.424
2.369	2.423	2.414
2.361	2.424	2.424
2.369	2.418	2.421
2.366	2.421	2.429
2.363	2.418	2.423
2.358	2.421	2.420
2.365	2.413	2.407
2.364	2.415	2.397
2.369	2.421	2.389
2.361	2.420	2.388
2.363	2.418	2.383
2.366	2.424	2.382
2.369	2.424	2.374
2.366	2.420	2.383
2.359	2.416	2.390
2.367	2.420	2.397
2.357	2.425	2.407
2.362	2.425	2.395
2.357	2.423	2.387
2.359	2.423	2.386
2.363	2.422	2.380
2.366	2.418	2.374
2.364	2.425	2.371
2.366	2.425	2.372
2.369	2.423	2.383
2.362	2.423	2.381
2.361	2.419	2.391
2.364	2.423	2.397
2.359	2.423	2.410
2.364	2.423	2.412
2.361	2.423	2.407
2.366	2.423	2.412
2.364	2.423	2.424
2.367	2.418	2.425
2.366	2.418	2.437
2.366	2.420	2.433
2.363	2.419	2.423
2.361	2.424	2.409
2.364	2.415	2.416
2.369	2.423	2.409
2.364	2.420	2.398
2.367	2.421	2.397
2.370	2.427	2.390
2.370	2.418	2.394
2.369	2.420	2.385
2.366	2.417	2.379
2.368	2.418	2.387
2.366	2.417	2.387
2.364	2.417	2.389
2.361	2.416	2.393
2.362	2.416	2.399
2.364	2.422	2.405
2.361	2.417	2.407
2.363	2.418	2.402
2.359	2.423	2.403
2.359	2.423	2.407
2.366	2.416	2.410
2.361	2.416	2.425
2.356	2.420	2.424
2.359	2.415	2.409
2.352	2.416	2.402
2.356	2.419	2.394
2.349	2.425	2.389
2.355	2.414	2.395
2.351	2.418	2.402
2.346	2.413	2.407
2.349	2.421	2.421
2.351	2.420	2.442
2.357	2.418	2.442
2.360	2.413	2.442
2.362	2.415	2.433
2.366	2.420	2.426
2.366	2.428	2.423
2.369	2.422	2.433
2.369	2.422	2.442
2.371	2.415	2.441
2.369	2.420	2.442
2.374	2.425	2.441
2.369	2.418	2.456
2.368	2.418	2.455
2.369	2.428	2.444
2.359	2.419	2.427
2.366	2.428	2.424
2.359	2.418	2.419
2.359	2.420	2.400
2.359	2.422	2.402
2.361	2.427	2.400
2.360	2.420	2.404
2.367	2.425	2.405
2.362	2.422	2.405
2.359	2.413	2.414
2.361	2.423	2.418
2.366	2.423	2.412
2.363	2.420	2.415
2.361	2.423	2.407
2.364	2.423	2.412
2.362	2.425	2.413
2.362	2.426	2.424
2.358	2.422	2.429
2.363	2.422	2.433
2.361	2.421	2.429
2.356	2.423	2.422
2.355	2.430	2.422
2.361	2.425	2.425
2.361	2.423	2.432
2.361	2.427	2.432
2.368	2.420	2.442
2.368	2.420	2.441
2.361	2.423	2.442
2.373	2.423	2.439
2.366	2.418	2.432
2.361	2.425	2.420
2.361	2.425	2.410
2.366	2.420	2.407
2.370	2.416	2.407
2.368	2.423	2.424
2.369	2.425	2.425
2.366	2.415	2.421
2.366	2.421	2.417
2.376	2.420	2.407
2.368	2.425	2.413
2.371	2.413	2.414
2.371	2.419	2.426
2.372	2.419	2.429
2.370	2.420	2.442
2.369	2.420	2.444
2.369	2.418	2.446
2.366	2.418	2.434
2.361	2.418	2.442
2.365	2.418	2.441
2.364	2.428	2.441
2.367	2.420	2.439
2.369	2.423	2.444
2.366	2.423	2.452
2.369	2.424	2.451
2.371	2.423	2.457
2.366	2.417	2.467
2.366	2.420	2.464
2.363	2.413	2.466
2.366	2.422	2.455
2.364	2.423	2.454
2.362	2.423	2.441
2.362	2.419	2.436
2.359	2.417	2.433
2.361	2.421	2.424
2.364	2.421	2.423
2.361	2.423	2.425
2.363	2.426	2.429
2.359	2.420	2.438
2.364	2.425	2.458
2.365	2.428	2.451
2.369	2.428	2.447
2.364	2.425	2.454
2.366	2.425	2.454
2.366	2.424	2.456
2.369	2.418	2.459
2.363	2.425	2.454
2.364	2.423	2.451
2.359	2.424	2.454
2.362	2.426	2.454
2.354	2.415	2.451
2.351	2.423	2.460
2.359	2.423	2.474
2.362	2.420	2.476
2.369	2.426	2.472
2.373	2.423	2.466
2.376	2.423	2.469
2.376	2.422	2.474
2.376	2.421	2.479
2.366	2.425	2.478
2.371	2.425	2.471
2.368	2.424	2.462
2.369	2.423	2.454
2.364	2.425	2.446
2.361	2.422	2.449
2.367	2.420	2.450
2.361	2.427	2.446
2.352	2.423	2.459
2.354	2.425	2.461
2.361	2.424	2.472
2.361	2.430	2.473
2.362	2.425	2.479
2.359	2.425	2.478
2.358	2.429	2.475
2.356	2.420	2.482
2.356	2.425	2.473
2.357	2.420	2.474
2.354	2.423	2.474
2.355	2.420	2.478
2.361	2.428	2.462
2.361	2.425	2.442
2.366	2.420	2.444
2.363	2.423	2.444
2.369	2.425	2.446
2.366	2.425	2.461
2.367	2.427	2.469
2.363	2.429	2.466
2.364	2.425	2.462
2.364	2.425	2.450
2.359	2.427	2.438
2.364	2.425	2.433
2.364	2.423	2.432
2.359	2.430	2.431
2.356	2.424	2.427
2.350	2.430	2.427
2.358	2.425	2.429
2.350	2.423	2.433
2.354	2.422	2.427
2.352	2.429	2.426
2.356	2.425	2.425
2.356	2.428	2.409
2.351	2.423	2.392
2.357	2.417	2.400
2.355	2.428	2.400
2.364	2.425	2.395
2.346	2.421	2.394
2.349	2.428	2.387
2.351	2.423	2.387
2.354	2.425	2.388
2.351	2.429	2.384
2.349	2.425	2.387
2.356	2.423	2.400
2.350	2.428	2.407
2.351	2.428	2.412
2.362	2.423	2.409
2.354	2.428	2.417
2.356	2.420	2.432
2.361	2.420	2.434
2.354	2.421	2.441
2.359	2.423	2.441
2.358	2.423	2.428
2.352	2.427	2.421
2.348	2.429	2.422
2.355	2.423	2.432
2.358	2.428	2.449
2.361	2.430	2.459
2.361	2.431	2.463
2.358	2.425	2.468
2.361	2.425	2.471
2.359	2.422	2.462
2.364	2.423	2.446
2.367	2.428	2.439
2.359	2.425	2.448
2.359	2.420	2.450
2.359	2.426	2.456
2.356	2.421	2.442
2.354	2.425	2.446
2.359	2.425	2.444
2.351	2.428	2.458
2.364	2.423	2.462
2.363	2.428	2.464
2.369	2.430	2.456
2.366	2.428	2.456
2.366	2.425	2.455
2.369	2.423	2.449
2.361	2.425	2.442
2.356	2.427	2.437
2.356	2.427	2.432
2.359	2.420	2.431
2.356	2.421	2.431
2.352	2.423	2.428
2.351	2.423	2.424
2.356	2.420	2.422
2.351	2.424	2.417
2.347	2.421	2.410
2.354	2.423	2.400
2.364	2.423	2.407
2.357	2.431	2.406
2.349	2.429	2.412
2.358	2.422	2.424
2.356	2.423	2.434
2.358	2.423	2.436
2.366	2.418	2.425
2.359	2.421	2.424
2.356	2.421	2.422
2.356	2.427	2.424
2.351	2.428	2.427
2.351	2.425	2.423
2.352	2.427	2.424
2.351	2.425	2.422
2.356	2.430	2.414
2.357	2.430	2.412
2.359	2.420	2.412
2.354	2.428	2.417
2.356	2.420	2.421
2.361	2.430	2.429
2.368	2.422	2.437
2.359	2.429	2.433
2.364	2.425	2.431
2.366	2.427	2.430
2.364	2.425	2.442
2.369	2.428	2.454
2.364	2.427	2.451
2.361	2.421	2.449
2.361	2.428	2.447
2.362	2.425	2.446
2.367	2.428	2.462
2.371	2.431	2.459
2.371	2.423	2.454
2.377	2.425	2.457
2.376	2.427	2.461
2.384	2.428	2.470
2.383	2.427	2.469
2.383	2.424	2.467
2.390	2.425	2.459
2.379	2.428	2.446
2.376	2.426	2.435
2.378	2.427	2.441
2.381	2.425	2.444
2.376	2.425	2.452
2.371	2.425	2.448
2.376	2.425	2.441
2.376	2.426	2.441
2.378	2.425	2.438
2.375	2.423	2.432
2.373	2.419	2.412
2.366	2.428	2.407
2.364	2.421	2.402
2.366	2.419	2.413
2.366	2.425	2.417
2.371	2.423	2.429
2.369	2.424	2.430
2.374	2.427	2.428
2.370	2.423	2.430
2.369	2.420	2.439
2.373	2.420	2.451
2.374	2.415	2.456
2.369	2.421	2.456
2.367	2.422	2.449
2.367	2.424	2.444
2.369	2.418	2.440
2.368	2.425	2.433
2.369	2.425	2.424
2.366	2.430	2.417
2.366	2.430	2.419
2.376	2.424	2.423
2.373	2.422	2.419
2.373	2.420	2.415
2.376	2.430	2.405
2.369	2.420	2.398
2.366	2.423	2.397
2.367	2.420	2.404
2.358	2.421	2.416
2.369	2.423	2.426
2.359	2.418	2.442
2.356	2.416	2.439
2.362	2.428	2.442
2.364	2.430	2.442
2.356	2.428	2.446
2.357	2.420	2.442
2.362	2.425	2.434
2.359	2.425	2.429
2.361	2.426	2.434
2.359	2.429	2.434
2.354	2.422	2.424
2.364	2.423	2.412
2.368	2.423	2.411
2.361	2.425	2.407
2.371	2.423	2.422
2.367	2.423	2.435
2.360	2.427	2.442
2.366	2.421	2.429
2.364	2.418	2.427
2.366	2.423	2.419
2.362	2.413	2.412
2.364	2.428	2.416
2.359	2.418	2.417
2.356	2.423	2.419
2.357	2.430	2.412
2.354	2.427	2.419
2.354	2.418	2.417
2.359	2.423	2.414
2.361	2.425	2.419
2.354	2.423	2.419
2.354	2.423	2.417
2.351	2.420	2.412
2.351	2.419	2.413
2.348	2.423	2.427
2.348	2.423	2.437
2.351	2.419	2.427
2.347	2.420	2.438
2.349	2.423	2.449
2.346	2.426	2.461
2.351	2.425	2.474
2.356	2.425	2.486
2.356	2.422	2.489
2.357	2.420	2.488
2.351	2.420	2.481
2.351	2.420	2.468
2.354	2.426	2.459
2.348	2.424	2.436
2.351	2.411	2.437
2.351	2.430	2.426
2.354	2.423	2.421
2.349	2.423	2.416
2.350	2.427	2.407
2.347	2.425	2.402
2.344	2.424	2.417
2.347	2.425	2.412
2.344	2.425	2.412
2.349	2.423	2.414
2.344	2.420	2.424
2.351	2.422	2.424
2.352	2.423	2.418
2.350	2.425	2.406
2.343	2.427	2.392
2.343	2.428	2.392
2.342	2.425	2.390
2.339	2.423	2.402
2.339	2.423	2.402
2.346	2.428	2.407
2.344	2.425	2.417
2.344	2.425	2.420
2.347	2.426	2.427
2.340	2.419	2.442
2.339	2.422	2.453
2.339	2.421	2.456
2.347	2.423	2.444
2.342	2.423	2.444
2.342	2.425	2.440
2.339	2.423	2.430
2.342	2.423	2.426
2.343	2.422	2.425
2.351	2.421	2.417
2.351	2.425	2.405
2.346	2.423	2.397
2.344	2.426	2.394
2.349	2.423	2.403
2.344	2.418	2.404
2.344	2.423	2.410
2.347	2.420	2.407
2.345	2.420	2.402
2.347	2.423	2.392
2.344	2.427	2.387
2.342	2.425	2.386
2.339	2.423	2.380
2.344	2.424	2.382
2.343	2.426	2.372
2.344	2.423	2.377
2.345	2.424	2.387
2.356	2.423	2.404
2.351	2.427	2.407
2.354	2.420	2.407
2.349	2.422	2.407
2.351	2.427	2.417
2.348	2.424	2.419
2.348	2.420	2.415
2.351	2.423	2.407
2.352	2.427	2.401
2.355	2.421	2.399
2.351	2.425	2.412
2.346	2.425	2.422
2.344	2.426	2.424
2.341	2.425	2.420
2.344	2.420	2.412
2.346	2.423	2.410
2.342	2.422	2.412
2.347	2.418	2.425
2.340	2.419	2.429
2.340	2.423	2.432
2.339	2.423	2.427
2.342	2.423	2.434
2.341	2.420	2.440
2.340	2.429	2.436
2.338	2.418	2.441
2.344	2.423	2.450
2.337	2.423	2.449
2.339	2.418	2.446
2.347	2.425	2.442
2.349	2.422	2.439
2.349	2.420	2.426
2.339	2.426	2.432
2.346	2.425	2.427
2.342	2.418	2.424
2.344	2.429	2.427
2.344	2.420	2.431
2.345	2.416	2.429
2.345	2.423	2.431
2.351	2.422	2.422
2.349	2.421	2.420
2.356	2.425	2.414
2.356	2.428	2.414
2.352	2.423	2.439
2.356	2.427	2.441
2.354	2.430	2.449
2.355	2.425	2.442
2.349	2.425	2.439
2.346	2.431	2.442
2.346	2.421	2.446
2.352	2.428	2.452
2.349	2.428	2.446
2.353	2.421	2.465
2.342	2.425	2.476
2.346	2.422	2.473
2.347	2.421	2.464
2.347	2.423	2.466
2.349	2.420	2.461
2.344	2.426	2.461
2.344	2.423	2.447
2.346	2.424	2.439
2.344	2.420	2.439
2.346	2.420	2.429
2.347	2.423	2.437
2.352	2.425	2.446
2.339	2.425	2.457
2.344	2.425	2.476
2.354	2.427	2.479
2.345	2.427	2.476
2.344	2.430	2.462
2.346	2.423	2.459
2.347	2.428	2.450
2.346	2.429	2.438
2.345	2.431	2.442
2.347	2.425	2.456
2.344	2.425	2.457
2.344	2.430	2.464
2.349	2.423	2.456
2.348	2.423	2.461
2.351	2.425	2.457
2.351	2.433	2.457
2.351	2.423	2.446
2.347	2.423	2.436
2.352	2.426	2.436
2.352	2.430	2.435
2.349	2.426	2.438
2.342	2.424	2.442
2.346	2.428	2.434
2.342	2.428	2.431
2.347	2.428	2.432
2.344	2.421	2.434
2.349	2.423	2.445
2.351	2.425	2.444
2.351	2.423	2.456
2.352	2.430	2.451
2.354	2.428	2.454
2.344	2.432	2.432
2.350	2.429	2.429
2.349	2.427	2.433
2.352	2.425	2.451
2.349	2.425	2.461
2.349	2.421	2.466
2.354	2.430	2.471
2.351	2.423	2.472
2.354	2.429	2.466
2.352	2.425	2.463
2.356	2.425	2.451
2.359	2.428	2.438
2.356	2.429	2.434
2.361	2.429	2.426
2.367	2.418	2.417
2.364	2.425	2.412
2.366	2.425	2.424
2.364	2.425	2.423
2.371	2.422	2.429
2.368	2.428	2.426
2.368	2.430	2.423
2.369	2.425	2.414
2.372	2.430	2.419
2.366	2.428	2.421
2.359	2.426	2.431
2.361	2.431	2.429
2.361	2.424	2.427
2.353	2.430	2.424
2.356	2.430	2.429
2.349	2.423	2.436
2.351	2.423	2.444
2.355	2.423	2.447
2.356	2.422	2.449
2.352	2.425	2.449
2.356	2.430	2.459
2.361	2.423	2.456
2.364	2.426	2.461
2.369	2.432	2.463
2.361	2.429	2.469
2.358	2.425	2.463
2.364	2.430	2.464
2.359	2.428	2.462
2.351	2.423	2.473
2.361	2.423	2.467
2.361	2.429	2.464
2.361	2.431	2.451
2.354	2.430	2.441
2.352	2.430	2.428
2.351	2.429	2.423
2.359	2.427	2.418
2.353	2.423	2.422
2.358	2.428	2.429
2.356	2.425	2.427
2.351	2.425	2.424
2.351	2.424	2.424
2.361	2.427	2.425
2.356	2.425	2.417
2.356	2.418	2.424
2.357	2.426	2.428
2.358	2.427	2.433
2.352	2.430	2.442
2.364	2.429	2.442
2.356	2.434	2.441
2.361	2.428	2.433
2.361	2.430	2.429
2.363	2.428	2.418
2.364	2.423	2.416
2.361	2.425	2.413
2.359	2.431	2.405
2.359	2.428	2.399
2.361	2.425	2.389
2.361	2.425	2.387
2.361	2.431	2.375
2.363	2.426	2.370
2.359	2.425	2.373
2.359	2.426	2.383
2.364	2.430	2.400
2.355	2.431	2.415
2.359	2.427	2.424
2.359	2.424	2.425
2.356	2.427	2.424
2.349	2.425	2.429
2.351	2.430	2.430
2.368	2.425	2.446
2.364	2.422	2.449
2.356	2.423	2.446
2.361	2.428	2.438
2.359	2.427	2.424
2.359	2.425	2.417
2.356	2.423	2.407
2.363	2.430	2.412
2.363	2.425	2.420
2.361	2.425	2.412
2.354	2.428	2.404
2.354	2.425	2.403
2.349	2.428	2.397
2.348	2.425	2.380
2.346	2.431	2.372
2.346	2.423	2.373
2.352	2.420	2.377
2.349	2.425	2.369
2.349	2.428	2.381
2.354	2.420	2.388
2.354	2.426	2.395
2.356	2.427	2.397
2.361	2.425	2.400
2.356	2.428	2.403
2.354	2.423	2.412
2.364	2.425	2.413
2.364	2.429	2.412
2.359	2.428	2.404
2.356	2.428	2.398
2.361	2.428	2.397
2.358	2.425	2.398
2.359	2.428	2.400
2.364	2.425	2.404
2.354	2.423	2.406
2.352	2.427	2.417
2.356	2.428	2.416
2.359	2.425	2.414
2.361	2.425	2.403
2.361	2.424	2.397
2.362	2.423	2.387
2.367	2.425	2.374
2.361	2.420	2.373
2.356	2.425	2.372
2.356	2.428	2.377
2.354	2.430	2.380
2.356	2.431	2.383
2.356	2.423	2.387
2.364	2.423	2.396
2.361	2.427	2.407
2.359	2.431	2.412
2.361	2.428	2.415
2.354	2.429	2.419
2.359	2.425	2.412
2.361	2.428	2.405
2.361	2.428	2.408
2.359	2.431	2.415
2.347	2.420	2.419
2.354	2.428	2.407
2.353	2.427	2.409
2.359	2.430	2.406
2.352	2.423	2.395
2.361	2.428	2.392
2.356	2.427	2.396
2.347	2.431	2.400
2.349	2.424	2.404
2.351	2.428	2.392
2.354	2.430	2.395
2.355	2.423	2.392
2.356	2.423	2.392
2.352	2.420	2.388
2.354	2.425	2.377
2.356	2.420	2.388
2.351	2.423	2.392
2.354	2.423	2.399
2.349	2.425	2.397
2.346	2.432	2.387
2.349	2.426	2.379
2.350	2.432	2.380
2.352	2.425	2.397
2.354	2.425	2.412
2.346	2.425	2.422
2.354	2.427	2.423
2.356	2.427	2.429
2.358	2.427	2.437
2.358	2.432	2.441
2.360	2.430	2.439
2.355	2.430	2.434
2.354	2.422	2.429
2.352	2.427	2.418
2.351	2.425	2.408
2.349	2.428	2.402
2.346	2.428	2.397
2.349	2.428	2.399
2.350	2.432	2.402
2.350	2.425	2.412
2.347	2.423	2.415
2.347	2.427	2.417
2.351	2.425	2.409
2.349	2.428	2.408
2.349	2.425	2.409
2.348	2.426	2.413
2.354	2.423	2.417
2.354	2.428	2.415
2.359	2.429	2.406
2.353	2.428	2.403
2.354	2.430	2.393
2.359	2.430	2.385
2.359	2.428	2.387
2.356	2.427	2.387
2.351	2.430	2.402
2.356	2.427	2.409
2.359	2.425	2.405
2.358	2.432	2.407
2.359	2.429	2.402
2.357	2.427	2.399
2.354	2.422	2.407
2.349	2.428	2.406
2.364	2.418	2.410
2.354	2.425	2.409
2.351	2.420	2.407
2.349	2.420	2.405
2.348	2.423	2.395
2.348	2.426	2.397
2.341	2.424	2.394
2.351	2.421	2.389
2.352	2.423	2.387
2.356	2.425	2.380
2.357	2.425	2.366
2.361	2.421	2.374
2.361	2.431	2.368
2.359	2.430	2.379
2.357	2.428	2.377
2.361	2.430	2.374
2.364	2.428	2.384
2.357	2.428	2.405
2.359	2.425	2.412
2.353	2.428	2.405
2.354	2.423	2.402
2.357	2.431	2.410
2.358	2.425	2.406
2.361	2.431	2.419
2.347	2.424	2.433
2.344	2.426	2.436
2.347	2.425	2.429
2.351	2.425	2.422
2.350	2.422	2.408
2.352	2.427	2.400
2.361	2.425	2.390
2.367	2.426	2.387
2.362	2.429	2.380
2.349	2.425	2.387
2.361	2.425	2.386
2.354	2.424	2.398
2.351	2.425	2.411
2.360	2.428	2.407
2.366	2.425	2.407
2.366	2.428	2.414
2.361	2.425	2.434
2.363	2.424	2.432
2.361	2.431	2.427
2.359	2.422	2.421
2.364	2.417	2.419
2.361	2.428	2.414
2.356	2.425	2.413
2.359	2.425	2.414
2.356	2.425	2.417
2.360	2.428	2.407
2.355	2.428	2.407
2.361	2.428	2.402
2.351	2.423	2.400
2.356	2.425	2.406
2.358	2.425	2.407
2.356	2.427	2.410
2.361	2.430	2.424
2.357	2.428	2.438
2.370	2.430	2.441
2.366	2.425	2.446
2.366	2.428	2.450
2.366	2.425	2.447
2.361	2.428	2.434
2.361	2.425	2.419
2.356	2.425	2.414
2.359	2.420	2.414
2.358	2.423	2.407
2.354	2.420	2.395
2.364	2.423	2.395
2.361	2.425	2.399
2.361	2.423	2.402
2.364	2.427	2.414
2.356	2.423	2.432
2.364	2.425	2.446
2.369	2.428	2.456
2.369	2.423	2.453
2.368	2.423	2.438
2.369	2.423	2.437
2.366	2.423	2.441
2.358	2.419	2.434
2.357	2.421	2.429
2.359	2.420	2.407
2.361	2.423	2.394
2.356	2.423	2.399
2.359	2.421	2.416
2.359	2.423	2.423
2.361	2.423	2.424
2.359	2.419	2.403
2.361	2.425	2.407
2.357	2.425	2.412
2.361	2.431	2.429
2.358	2.426	2.439
2.366	2.423	2.441
2.354	2.425	2.439
2.361	2.423	2.441
2.350	2.431	2.429
2.349	2.423	2.425
2.356	2.423	2.416
2.359	2.423	2.429
2.359	2.430	2.432
2.361	2.428	2.429
2.362	2.428	2.425
2.358	2.427	2.422
2.357	2.424	2.424
2.361	2.420	2.423
2.366	2.423	2.418
2.361	2.430	2.415
2.359	2.425	2.415
2.356	2.428	2.414
2.360	2.425	2.414
2.364	2.425	2.421
2.369	2.425	2.421
2.364	2.423	2.424
2.366	2.424	2.425
2.361	2.425	2.427
2.361	2.427	2.433
2.367	2.427	2.435
2.363	2.429	2.429
2.363	2.428	2.432
2.366	2.423	2.432
2.366	2.428	2.436
2.356	2.425	2.443
2.355	2.428	2.443
2.353	2.425	2.450
2.359	2.423	2.446
2.354	2.425	2.444
2.356	2.418	2.434
2.354	2.428	2.431
2.356	2.429	2.426
2.359	2.425	2.436
2.355	2.430	2.441
2.355	2.428	2.442
2.346	2.425	2.454
2.349	2.428	2.445
2.354	2.423	2.436
2.356	2.425	2.437
2.358	2.423	2.442
2.363	2.420	2.442
2.359	2.430	2.445
2.357	2.428	2.439
2.356	2.424	2.436
2.347	2.423	2.434
2.359	2.425	2.424
2.349	2.425	2.422
2.354	2.420	2.407
2.349	2.426	2.397
2.356	2.423	2.397
2.354	2.425	2.386
2.351	2.428	2.389
2.355	2.423	2.390
2.350	2.426	2.403
2.353	2.420	2.403
2.356	2.428	2.405
2.354	2.425	2.410
2.358	2.421	2.413
2.356	2.430	2.406
2.354	2.425	2.402
2.352	2.425	2.395
2.355	2.427	2.407
2.345	2.425	2.421
2.358	2.430	2.420
2.364	2.423	2.429
2.361	2.426	2.436
2.363	2.428	2.444
2.359	2.424	2.440
2.358	2.420	2.431
2.357	2.418	2.420
2.361	2.425	2.412
2.357	2.428	2.407
2.361	2.431	2.392
2.359	2.430	2.400
2.361	2.429	2.396
2.366	2.424	2.392
2.369	2.430	2.397
2.369	2.430	2.395
2.367	2.423	2.387
2.367	2.423	2.390
2.357	2.424	2.390
2.364	2.426	2.397
2.361	2.430	2.400
2.359	2.423	2.407
2.358	2.424	2.416
2.363	2.428	2.412
2.361	2.428	2.425
2.365	2.420	2.417
2.363	2.426	2.412
2.354	2.431	2.404
2.351	2.428	2.384
2.354	2.431	2.379
2.351	2.424	2.384
2.351	2.424	2.388
2.349	2.420	2.394
2.351	2.420	2.394
2.354	2.427	2.399
2.351	2.425	2.397
2.342	2.428	2.405
2.349	2.423	2.400
2.351	2.426	2.404
2.344	2.428	2.390
2.341	2.423	2.387
2.344	2.429	2.389
2.349	2.427	2.396
2.352	2.429	2.403
2.347	2.428	2.412
2.356	2.425	2.421
2.361	2.428	2.424
2.356	2.424	2.422
2.351	2.430	2.430
2.359	2.425	2.434
2.354	2.430	2.426
2.344	2.427	2.425
2.347	2.429	2.425
2.353	2.425	2.414
2.356	2.428	2.404
2.359	2.429	2.394
2.361	2.428	2.400
2.354	2.428	2.392
2.358	2.430	2.406
2.356	2.425	2.420
2.354	2.427	2.424
2.352	2.425	2.426
2.351	2.428	2.420
2.355	2.428	2.414
2.356	2.425	2.407
2.349	2.428	2.420
2.351	2.425	2.424
2.354	2.428	2.430
2.344	2.425	2.432
2.349	2.423	2.441
2.356	2.423	2.447
2.359	2.428	2.449
2.353	2.425	2.452
2.356	2.430	2.444
2.354	2.424	2.442
2.356	2.425	2.440
2.354	2.429	2.453
2.351	2.428	2.456
2.347	2.429	2.459
2.349	2.426	2.456
2.344	2.420	2.454
2.348	2.427	2.446
2.349	2.428	2.427
2.342	2.431	2.413
2.344	2.427	2.412
2.344	2.423	2.409
2.344	2.429	2.406
2.344	2.423	2.417
2.349	2.430	2.426
2.350	2.428	2.420
2.340	2.429	2.417
2.344	2.423	2.406
2.346	2.426	2.400
2.346	2.428	2.398
2.348	2.428	2.391
2.348	2.423	2.387
2.346	2.425	2.377
2.352	2.427	2.377
2.355	2.429	2.387
2.349	2.428	2.411
2.347	2.430	2.414
2.354	2.429	2.412
2.351	2.424	2.410
2.354	2.431	2.412
2.346	2.425	2.404
2.349	2.427	2.402
2.349	2.427	2.397
2.343	2.428	2.394
2.344	2.427	2.387
2.348	2.425	2.387
2.346	2.423	2.390
2.344	2.425	2.398
2.339	2.423	2.417
2.349	2.425	2.435
2.349	2.430	2.439
2.349	2.426	2.442
2.356	2.424	2.439
2.354	2.431	2.437
2.356	2.423	2.438
2.354	2.425	2.431
2.352	2.423	2.417
2.354	2.420	2.422
2.351	2.425	2.424
2.349	2.428	2.426
2.344	2.427	2.431
2.349	2.430	2.432
2.347	2.431	2.442
2.346	2.431	2.446
2.349	2.428	2.443
2.344	2.427	2.432
2.354	2.430	2.424
2.346	2.430	2.425
2.344	2.431	2.424
2.342	2.431	2.421
2.346	2.428	2.413
2.344	2.423	2.408
2.344	2.429	2.415
2.342	2.427	2.419
2.339	2.423	2.414
2.351	2.420	2.408
2.351	2.423	2.408
2.354	2.425	2.423
2.354	2.425	2.425
2.354	2.430	2.424
2.347	2.427	2.424
2.349	2.431	2.426
2.344	2.429	2.417
2.351	2.428	2.403
2.357	2.430	2.400
2.349	2.430	2.394
2.349	2.425	2.395
2.352	2.424	2.394
2.349	2.426	2.392
2.351	2.427	2.402
2.356	2.428	2.409
2.356	2.430	2.412
2.357	2.432	2.424
2.349	2.430	2.434
2.356	2.428	2.442
2.361	2.427	2.442
2.359	2.427	2.439
2.362	2.427	2.431
2.361	2.428	2.424
2.352	2.424	2.434
2.351	2.428	2.440
2.359	2.429	2.436
2.351	2.430	2.436
2.354	2.423	2.433
2.354	2.428	2.429
2.354	2.427	2.430
2.348	2.425	2.427
2.353	2.429	2.437
2.352	2.430	2.442
2.354	2.428	2.441
2.354	2.426	2.442
2.351	2.433	2.424
2.354	2.429	2.410
2.346	2.424	2.403
2.356	2.430	2.396
2.359	2.430	2.395
2.363	2.433	2.392
2.356	2.430	2.406
2.361	2.431	2.426
2.367	2.429	2.436
2.369	2.423	2.451
2.366	2.428	2.462
2.369	2.431	2.465
2.369	2.428	2.479
2.363	2.428	2.496
2.369	2.429	2.495
2.366	2.423	2.491
2.364	2.430	2.486
2.364	2.428	2.468
2.368	2.430	2.462
2.369	2.433	2.461
2.371	2.430	2.464
2.369	2.427	2.462
2.373	2.430	2.477
2.374	2.428	2.475
2.369	2.432	2.482
2.366	2.427	2.492
2.361	2.424	2.496
2.366	2.427	2.511
2.356	2.430	2.515
2.366	2.433	2.512
2.364	2.430	2.519
2.369	2.430	2.521
2.367	2.427	2.526
2.371	2.431	2.523
2.366	2.428	2.505
2.371	2.423	2.496
2.369	2.423	2.491
2.364	2.432	2.482
2.361	2.433	2.476
2.366	2.430	2.472
2.366	2.431	2.462
2.369	2.431	2.453
2.366	2.425	2.448
2.366	2.427	2.449
2.364	2.427	2.477
2.363	2.425	2.491
2.361	2.428	2.495
2.359	2.425	2.481
2.361	2.432	2.478
2.358	2.430	2.478
2.359	2.427	2.473
2.366	2.430	2.469
2.366	2.428	2.466
2.367	2.425	2.459
2.369	2.429	2.440
2.364	2.425	2.434
2.364	2.429	2.433
2.369	2.424	2.432
2.376	2.425	2.429
2.372	2.424	2.424
2.368	2.427	2.424
2.369	2.431	2.425
2.364	2.426	2.424
2.364	2.430	2.427
2.361	2.428	2.417
2.364	2.429	2.426
2.366	2.427	2.433
2.361	2.430	2.430
2.364	2.423	2.426
2.359	2.428	2.427
2.361	2.427	2.418
2.359	2.425	2.431
2.359	2.426	2.431
2.366	2.424	2.424
2.364	2.431	2.425
2.359	2.426	2.442
2.356	2.420	2.449
2.364	2.430	2.446
2.356	2.420	2.444
2.352	2.431	2.444
2.356	2.425	2.438
2.358	2.422	2.433
2.354	2.422	2.431
2.357	2.428	2.431
2.359	2.431	2.433
2.361	2.429	2.433
2.355	2.430	2.425
2.358	2.419	2.423
2.356	2.428	2.418
2.356	2.428	2.415
2.359	2.428	2.412
2.369	2.428	2.414
2.368	2.430	2.422
2.363	2.428	2.419
2.368	2.420	2.429
2.365	2.428	2.442
2.360	2.430	2.446
2.364	2.432	2.454
2.364	2.426	2.453
2.361	2.430	2.456
2.359	2.428	2.449
2.361	2.420	2.442
2.361	2.425	2.442
2.364	2.427	2.429
2.360	2.427	2.419
2.360	2.429	2.413
2.361	2.432	2.421
2.361	2.430	2.419
2.361	2.430	2.424
2.366	2.432	2.409
2.364	2.425	2.414
2.364	2.429	2.414
2.359	2.428	2.408
2.360	2.427	2.405
2.357	2.422	2.400
2.359	2.428	2.402
2.357	2.423	2.403
2.366	2.430	2.403
2.364	2.426	2.407
2.361	2.425	2.409
2.366	2.428	2.406
2.364	2.425	2.407
2.369	2.426	2.402
2.359	2.429	2.397
2.366	2.428	2.405
2.369	2.428	2.409
2.361	2.424	2.407
2.366	2.425	2.409
2.366	2.423	2.404
2.361	2.418	2.394
2.364	2.425	2.387
2.365	2.428	2.387
2.364	2.430	2.386
2.356	2.431	2.386
2.358	2.428	2.384
2.356	2.422	2.400
2.361	2.423	2.407
2.361	2.425	2.415
2.356	2.428	2.412
2.360	2.423	2.407
2.357	2.423	2.406
2.363	2.420	2.408
2.356	2.423	2.407
2.357	2.428	2.400
2.361	2.427	2.402
2.354	2.421	2.407
2.359	2.421	2.405
2.351	2.418	2.407
2.361	2.422	2.401
2.359	2.425	2.398
2.353	2.425	2.398
2.354	2.428	2.400
2.356	2.428	2.399
2.361	2.430	2.420
2.364	2.429	2.429
2.356	2.430	2.441
2.364	2.430	2.442
2.364	2.426	2.454
2.358	2.423	2.449
2.366	2.427	2.444
2.363	2.429	2.442
2.366	2.430	2.434
2.364	2.425	2.439
2.361	2.430	2.441
2.356	2.427	2.441
2.359	2.427	2.441
2.359	2.425	2.439
2.352	2.425	2.436
2.357	2.423	2.432
2.350	2.425	2.431
2.356	2.431	2.438
2.354	2.427	2.437
2.359	2.424	2.439
2.361	2.425	2.441
2.354	2.428	2.446
2.352	2.425	2.431
2.349	2.420	2.426
2.353	2.425	2.425
2.356	2.419	2.425
2.359	2.430	2.424
2.351	2.428	2.431
2.351	2.425	2.424
2.366	2.425	2.420
2.356	2.428	2.425
2.357	2.428	2.419
2.350	2.427	2.422
2.351	2.428	2.425
2.354	2.418	2.422
2.352	2.428	2.415
2.349	2.425	2.414
2.356	2.428	2.415
2.340	2.425	2.407
2.351	2.421	2.407
2.357	2.423	2.404
2.345	2.421	2.409
2.346	2.421	2.408
2.344	2.420	2.412
2.349	2.423	2.417
2.347	2.418	2.427
2.353	2.423	2.438
2.351	2.428	2.433
2.351	2.423	2.449
2.351	2.426	2.449
2.350	2.417	2.442
2.344	2.423	2.443
2.347	2.427	2.444
2.352	2.428	2.452
2.356	2.432	2.456
2.359	2.425	2.456
2.354	2.419	2.457
2.358	2.430	2.455
2.357	2.417	2.455
2.358	2.426	2.451
2.356	2.428	2.442
2.351	2.425	2.437
2.347	2.427	2.449
2.346	2.426	2.459
2.349	2.423	2.462
2.346	2.428	2.463
2.352	2.424	2.462
2.357	2.425	2.461
2.359	2.426	2.469
2.359	2.420	2.473
2.351	2.430	2.471
2.354	2.425	2.464
2.361	2.427	2.474
2.364	2.420	2.466
2.361	2.422	2.464
2.369	2.422	2.451
2.359	2.423	2.459
2.357	2.425	2.464
2.356	2.426	2.466
2.358	2.424	2.461
2.359	2.424	2.456
2.351	2.422	2.451
2.351	2.430	2.462
2.354	2.422	2.462
2.349	2.425	2.454
2.356	2.425	2.447
2.357	2.420	2.459
2.358	2.423	2.472
2.356	2.423	2.479
2.351	2.425	2.478
2.354	2.430	2.483
2.356	2.428	2.491
2.363	2.425	2.491
2.366	2.428	2.491
2.366	2.425	2.487
2.364	2.428	2.483
2.364	2.426	2.478
2.362	2.425	2.467
2.366	2.425	2.452
2.366	2.425	2.445
2.363	2.428	2.441
2.362	2.428	2.442
2.361	2.426	2.442
2.361	2.431	2.444
2.357	2.428	2.441
2.358	2.422	2.431
2.356	2.420	2.437
2.363	2.431	2.442
2.359	2.425	2.438
2.366	2.423	2.441
2.361	2.421	2.446
2.366	2.425	2.457
2.369	2.425	2.464
2.374	2.434	2.484
2.382	2.431	2.486
2.376	2.431	2.493
2.366	2.429	2.493
2.366	2.426	2.493
2.366	2.430	2.482
2.367	2.427	2.479
2.374	2.423	2.474
2.369	2.425	2.473
2.372	2.430	2.471
2.370	2.422	2.468
2.374	2.428	2.463
2.378	2.428	2.462
2.379	2.428	2.461
2.378	2.430	2.454
2.370	2.424	2.443
2.376	2.425	2.446
2.376	2.428	2.447
2.371	2.425	2.444
2.374	2.423	2.449
2.373	2.430	2.449
2.376	2.420	2.461
2.381	2.420	2.461
2.383	2.423	2.461
2.371	2.428	2.453
2.378	2.428	2.457
2.374	2.424	2.452
2.374	2.424	2.459
2.379	2.420	2.459
2.383	2.423	2.453
2.374	2.423	2.451
2.373	2.430	2.462
2.376	2.430	2.473
2.378	2.425	2.473
2.383	2.423	2.477
2.378	2.433	2.477
2.374	2.430	2.469
2.373	2.430	2.466
2.376	2.423	2.454
2.381	2.426	2.465
2.378	2.423	2.469
2.381	2.428	2.477
2.375	2.428	2.468
2.371	2.423	2.469
2.381	2.428	2.477
2.376	2.425	2.479
2.374	2.425	2.478
2.373	2.425	2.467
2.371	2.428	2.451
2.374	2.430	2.441
2.371	2.425	2.438
2.371	2.428	2.440
2.376	2.426	2.436
2.373	2.422	2.442
2.380	2.428	2.446
2.381	2.430	2.454
2.381	2.428	2.457
2.381	2.433	2.451
2.384	2.430	2.448
2.381	2.425	2.449
2.378	2.430	2.451
2.371	2.425	2.462
2.381	2.430	2.469
2.385	2.428	2.471
2.384	2.430	2.471
2.384	2.426	2.451
2.383	2.425	2.446
2.386	2.427	2.438
2.391	2.426	2.438
2.385	2.425	2.436
2.386	2.428	2.434
2.391	2.424	2.442
2.381	2.430	2.449
2.384	2.430	2.442
2.383	2.431	2.446
2.381	2.427	2.438
2.379	2.432	2.439
2.383	2.438	2.438
2.383	2.428	2.441
2.384	2.428	2.451
2.376	2.428	2.459
2.377	2.428	2.459
2.378	2.428	2.459
2.381	2.433	2.462
2.376	2.435	2.459
2.374	2.429	2.455
2.371	2.431	2.447
2.378	2.431	2.442
2.378	2.424	2.430
2.379	2.430	2.414
2.381	2.427	2.410
2.376	2.431	2.399
2.372	2.430	2.418
2.386	2.432	2.422
2.376	2.423	2.423
2.376	2.432	2.414
2.373	2.430	2.412
2.376	2.433	2.409
2.379	2.430	2.409
2.374	2.430	2.407
2.374	2.429	2.407
2.375	2.428	2.404
2.378	2.431	2.394
2.384	2.431	2.417
2.368	2.431	2.420
2.371	2.426	2.414
2.377	2.423	2.427
2.374	2.425	2.422
2.374	2.428	2.439
2.375	2.428	2.445
2.368	2.427	2.444
2.371	2.425	2.436
2.369	2.426	2.438
2.373	2.427	2.441
2.369	2.423	2.441
2.371	2.428	2.433
2.369	2.425	2.423
2.369	2.423	2.422
2.368	2.428	2.424
2.371	2.423	2.420
2.374	2.429	2.418
2.367	2.428	2.412
2.371	2.430	2.407
2.368	2.424	2.403
2.369	2.432	2.402
2.369	2.427	2.397
2.371	2.425	2.397
2.372	2.431	2.380
2.368	2.428	2.376
2.366	2.432	2.385
2.369	2.430	2.390
2.368	2.425	2.405
2.366	2.429	2.420
2.369	2.430	2.428
2.371	2.425	2.434
2.372	2.425	2.434
2.370	2.420	2.436
2.371	2.422	2.424
2.384	2.430	2.423
2.379	2.423	2.428
2.378	2.425	2.428
2.373	2.423	2.422
2.373	2.425	2.419
2.378	2.427	2.417
2.374	2.425	2.414
2.369	2.425	2.408
2.371	2.430	2.402
2.376	2.428	2.397
2.378	2.419	2.400
2.381	2.426	2.397
2.381	2.423	2.400
2.376	2.428	2.390
2.366	2.422	2.388
2.374	2.425	2.389
2.369	2.424	2.384
2.365	2.423	2.387
2.369	2.421	2.386
2.369	2.423	2.402
2.371	2.427	2.405
2.371	2.423	2.407
2.376	2.424	2.412
2.378	2.429	2.407
2.377	2.428	2.409
2.375	2.425	2.405
2.375	2.423	2.407
2.378	2.423	2.402
2.376	2.428	2.392
2.373	2.428	2.387
2.372	2.431	2.382
2.369	2.423	2.386
2.369	2.423	2.387
2.377	2.425	2.394
2.378	2.423	2.395
2.369	2.426	2.389
2.373	2.424	2.388
2.376	2.428	2.393
2.368	2.425	2.388
2.369	2.423	2.392
2.366	2.433	2.390
2.369	2.428	2.382
2.366	2.423	2.384
2.367	2.428	2.408
2.362	2.428	2.417
2.364	2.425	2.429
2.371	2.428	2.438
2.373	2.429	2.453
2.369	2.423	2.463
2.366	2.418	2.469
2.368	2.425	2.478
2.370	2.415	2.476
2.368	2.425	2.471
2.367	2.424	2.451
2.369	2.422	2.457
2.368	2.421	2.454
2.378	2.423	2.457
2.373	2.423	2.447
2.376	2.425	2.441
2.373	2.425	2.433
2.367	2.424	2.432
2.368	2.420	2.429
2.367	2.425	2.439
2.371	2.425	2.446
2.369	2.423	2.451
2.368	2.425	2.452
2.368	2.423	2.451
2.369	2.422	2.462
2.364	2.418	2.464
2.364	2.427	2.456
2.364	2.425	2.451
2.364	2.430	2.439
2.361	2.429	2.445
2.366	2.426	2.448
2.371	2.431	2.459
2.368	2.432	2.457
2.365	2.425	2.451
2.364	2.423	2.452
2.369	2.423	2.443
2.368	2.425	2.445
2.363	2.423	2.446
2.364	2.425	2.451
2.366	2.426	2.450
2.366	2.427	2.452
2.366	2.431	2.445
2.361	2.428	2.462
2.356	2.427	2.479
2.361	2.430	2.469
2.361	2.430	2.466
2.355	2.428	2.467
2.364	2.430	2.464
2.364	2.425	2.462
2.361	2.426	2.462
2.361	2.425	2.462
2.358	2.423	2.456
2.364	2.428	2.459
2.366	2.431	2.461
2.361	2.424	2.471
2.359	2.425	2.466
2.361	2.425	2.462
2.364	2.417	2.461
2.358	2.429	2.457
2.361	2.425	2.445
2.366	2.425	2.441
2.364	2.425	2.448
2.362	2.425	2.456
2.365	2.424	2.460
2.366	2.420	2.462
2.369	2.429	2.457
2.369	2.423	2.448
2.369	2.426	2.446
2.369	2.423	2.433
2.369	2.427	2.437
2.374	2.423	2.433
2.372	2.425	2.439
2.368	2.425	2.449
2.360	2.422	2.462
2.369	2.425	2.463
2.366	2.425	2.469
2.356	2.428	2.469
2.358	2.425	2.459
2.354	2.423	2.441
2.369	2.422	2.424
2.364	2.430	2.413
2.364	2.425	2.409
2.361	2.428	2.416
2.369	2.427	2.422
2.361	2.425	2.424
2.361	2.428	2.439
2.366	2.425	2.441
2.366	2.425	2.440
2.364	2.428	2.444
2.365	2.432	2.447
2.360	2.427	2.454
2.362	2.423	2.453
2.366	2.425	2.455
2.366	2.423	2.446
2.369	2.421	2.444
2.369	2.427	2.442
2.368	2.423	2.432
2.373	2.425	2.426
2.369	2.431	2.432
2.368	2.425	2.425
2.373	2.423	2.425
2.369	2.425	2.419
2.369	2.431	2.416
2.369	2.426	2.424
2.368	2.430	2.437
2.369	2.427	2.449
2.371	2.430	2.459
2.374	2.428	2.457
2.377	2.430	2.449
2.371	2.430	2.445
2.376	2.427	2.442
2.371	2.425	2.441
2.376	2.428	2.454
2.371	2.431	2.451
2.369	2.434	2.448
2.368	2.426	2.449
2.369	2.430	2.443
2.365	2.425	2.434
2.369	2.428	2.444
2.371	2.427	2.454
2.374	2.433	2.468
2.369	2.430	2.471
2.368	2.425	2.474
2.368	2.430	2.472
2.376	2.428	2.472
2.374	2.428	2.467
2.368	2.431	2.469
2.368	2.431	2.459
2.366	2.428	2.456
2.368	2.433	2.459
2.373	2.430	2.471
2.383	2.430	2.496
2.369	2.430	2.514
2.376	2.433	2.529
2.373	2.430	2.538
2.388	2.438	2.540
2.383	2.430	2.535
2.388	2.423	2.518
2.386	2.427	2.523
2.389	2.431	2.522
2.388	2.429	2.516
2.391	2.425	2.507
2.393	2.430	2.498
2.388	2.433	2.496
2.383	2.428	2.489
2.384	2.431	2.481
2.386	2.429	2.476
2.386	2.425	2.474
2.381	2.430	2.476
2.386	2.430	2.476
2.383	2.432	2.462
2.388	2.429	2.466
2.386	2.423	2.479
2.386	2.430	2.479
2.382	2.431	2.479
2.384	2.428	2.484
2.381	2.430	2.493
2.384	2.430	2.497
2.383	2.430	2.499
2.388	2.428	2.508
2.388	2.425	2.516
2.381	2.432	2.515
2.383	2.430	2.515
2.377	2.432	2.515
2.373	2.428	2.518
2.384	2.431	2.521
2.379	2.430	2.515
2.385	2.430	2.500
2.384	2.427	2.491
2.386	2.430	2.479
2.388	2.433	2.471
2.386	2.430	2.464
2.379	2.428	2.472
2.383	2.431	2.478
2.381	2.430	2.473
2.384	2.431	2.471
2.378	2.428	2.462
2.376	2.433	2.466
2.378	2.430	2.467
2.376	2.425	2.463
2.373	2.428	2.462
2.380	2.428	2.476
2.381	2.430	2.479
2.381	2.431	2.486
2.383	2.429	2.484
2.383	2.432	2.472
2.384	2.425	2.462
2.374	2.429	2.457
2.371	2.428	2.459
2.374	2.425	2.454
2.377	2.427	2.442
2.376	2.431	2.438
2.384	2.425	2.441
2.376	2.425	2.447
2.383	2.428	2.467
2.384	2.431	2.474
2.383	2.424	2.470
2.386	2.423	2.467
2.388	2.431	2.462
2.394	2.428	2.462
2.386	2.428	2.457
2.391	2.420	2.448
2.393	2.430	2.448
2.390	2.430	2.453
2.388	2.428	2.464
2.386	2.430	2.479
2.383	2.432	2.481
2.378	2.424	2.479
2.384	2.428	2.462
2.382	2.433	2.462
2.383	2.431	2.453
2.378	2.429	2.452
2.381	2.429	2.451
2.381	2.426	2.460
2.384	2.430	2.467
2.381	2.431	2.462
2.376	2.430	2.453
2.379	2.430	2.447
2.381	2.428	2.442
2.376	2.430	2.424
2.376	2.428	2.427
2.376	2.433	2.432
2.371	2.431	2.440
2.369	2.427	2.441
2.371	2.431	2.438
2.369	2.425	2.437
2.381	2.427	2.433
2.373	2.428	2.438
2.371	2.431	2.438
2.376	2.425	2.436
2.376	2.432	2.439
2.381	2.428	2.438
2.373	2.430	2.430
2.369	2.428	2.427
2.372	2.428	2.417
2.372	2.431	2.409
2.373	2.428	2.403
2.374	2.428	2.397
2.369	2.433	2.397
2.373	2.433	2.396
2.369	2.427	2.401
2.371	2.425	2.414
2.369	2.430	2.425
2.369	2.430	2.431
2.375	2.427	2.423
2.370	2.430	2.424
2.359	2.430	2.425
2.371	2.423	2.436
2.373	2.429	2.446
2.374	2.431	2.458
2.378	2.432	2.456
2.383	2.430	2.445
2.384	2.431	2.441
2.376	2.428	2.436
2.372	2.430	2.431
2.374	2.430	2.433
2.378	2.424	2.442
2.376	2.431	2.449
2.378	2.425	2.457
2.383	2.433	2.461
2.378	2.427	2.447
2.376	2.426	2.442
2.372	2.424	2.434
2.374	2.427	2.437
2.373	2.426	2.441
2.369	2.431	2.441
2.369	2.430	2.438
2.371	2.430	2.436
2.367	2.430	2.426
2.366	2.430	2.423
2.369	2.425	2.406
2.367	2.423	2.406
2.372	2.434	2.404
2.371	2.429	2.408
2.369	2.428	2.412
2.363	2.428	2.407
2.359	2.430	2.402
2.360	2.425	2.394
2.366	2.430	2.388
2.366	2.428	2.387
2.366	2.430	2.385
2.366	2.431	2.385
2.369	2.430	2.374
2.369	2.430	2.382
2.369	2.432	2.390
2.366	2.431	2.402
2.369	2.428	2.412
2.364	2.430	2.410
2.363	2.424	2.407
2.362	2.427	2.409
2.370	2.425	2.406
2.363	2.430	2.411
2.366	2.430	2.409
2.369	2.428	2.417
2.369	2.430	2.417
2.365	2.430	2.407
2.364	2.431	2.394
2.361	2.428	2.400
2.359	2.428	2.398
2.364	2.425	2.394
2.359	2.427	2.402
2.356	2.430	2.419
2.362	2.426	2.432
2.359	2.427	2.441
2.358	2.430	2.450
2.354	2.427	2.449
2.354	2.430	2.444
2.354	2.423	2.435
2.359	2.425	2.427
2.351	2.424	2.420
2.361	2.430	2.410
2.359	2.428	2.412
2.364	2.425	2.422
2.364	2.428	2.412
2.366	2.420	2.408
2.366	2.423	2.407
2.365	2.423	2.414
2.368	2.424	2.415
2.361	2.425	2.420
2.366	2.423	2.431
2.372	2.428	2.433
2.363	2.422	2.442
2.364	2.432	2.434
2.363	2.432	2.427
2.361	2.423	2.427
2.369	2.425	2.429
2.368	2.425	2.428
2.365	2.425	2.430
2.366	2.425	2.424
2.364	2.425	2.419
2.358	2.424	2.414
2.361	2.431	2.424
2.369	2.427	2.439
2.363	2.431	2.453
2.359	2.424	2.461
2.364	2.428	2.462
2.368	2.431	2.459
2.369	2.430	2.448
2.364	2.427	2.442
2.366	2.424	2.440
2.369	2.431	2.431
2.373	2.425	2.431
2.369	2.430	2.433
2.372	2.429	2.450
2.368	2.430	2.462
2.366	2.430	2.467
2.368	2.431	2.479
2.371	2.429	2.476
2.369	2.429	2.458
2.374	2.428	2.454
2.373	2.430	2.456
2.371	2.426	2.446
2.369	2.430	2.442
2.373	2.425	2.432
2.365	2.424	2.433
2.376	2.430	2.435
2.373	2.425	2.424
2.373	2.431	2.420
2.371	2.431	2.418
2.365	2.433	2.406
2.366	2.428	2.404
2.369	2.427	2.404
2.369	2.425	2.405
2.365	2.429	2.412
2.369	2.430	2.424
2.366	2.428	2.429
2.358	2.427	2.433
2.364	2.430	2.428
2.366	2.425	2.424
2.366	2.430	2.429
2.374	2.428	2.428
2.368	2.430	2.434
2.358	2.421	2.427
2.361	2.428	2.431
2.361	2.425	2.423
2.366	2.430	2.419
2.368	2.428	2.421
2.369	2.425	2.418
2.371	2.426	2.423
2.367	2.430	2.430
2.368	2.428	2.429
2.366	2.431	2.448
2.374	2.430	2.461
2.376	2.429	2.478
2.378	2.431	2.483
2.381	2.430	2.481
2.376	2.428	2.487
2.371	2.425	2.478
2.374	2.433	2.484
2.374	2.431	2.478
2.366	2.430	2.483
2.366	2.430	2.478
2.366	2.428	2.472
2.366	2.428	2.456
2.366	2.424	2.456
2.361	2.426	2.461
2.356	2.421	2.464
2.365	2.425	2.463
2.363	2.428	2.474
2.367	2.429	2.493
2.371	2.427	2.515
2.368	2.430	2.518
2.371	2.430	2.516
2.371	2.425	2.513
2.371	2.428	2.504
2.376	2.430	2.495
2.367	2.430	2.498
2.361	2.426	2.518
2.365	2.424	2.515
2.376	2.424	2.506
2.376	2.430	2.499
2.379	2.430	2.491
2.373	2.428	2.485
2.371	2.430	2.487
2.371	2.430	2.493
2.369	2.429	2.487
2.369	2.425	2.478
2.367	2.430	2.466
2.369	2.431	2.455
2.364	2.429	2.444
2.368	2.429	2.442
2.366	2.431	2.442
2.368	2.428	2.441
2.371	2.430	2.455
2.368	2.430	2.453
2.368	2.428	2.446
2.361	2.430	2.437
2.358	2.432	2.419
2.361	2.430	2.421
2.364	2.430	2.414
2.356	2.423	2.403
2.356	2.431	2.402
2.363	2.430	2.407
2.366	2.428	2.407
2.373	2.425	2.400
2.378	2.432	2.403
2.376	2.432	2.417
2.378	2.430	2.431
2.381	2.427	2.434
2.379	2.427	2.446
2.374	2.430	2.461
2.373	2.430	2.488
2.369	2.431	2.493
2.367	2.430	2.483
2.366	2.432	2.469
2.366	2.433	2.459
2.364	2.428	2.448
2.369	2.431	2.433
2.363	2.430	2.431
2.369	2.427	2.440
2.364	2.430	2.439
2.368	2.430	2.431
2.366	2.428	2.426
2.369	2.425	2.416
2.364	2.428	2.418
2.364	2.428	2.407
2.364	2.428	2.402
2.366	2.432	2.407
2.362	2.423	2.407
2.361	2.425	2.423
2.356	2.427	2.426
2.361	2.426	2.441
2.362	2.430	2.446
2.363	2.431	2.451
2.364	2.435	2.462
2.369	2.437	2.469
2.369	2.430	2.474
2.376	2.431	2.469
2.371	2.430	2.451
2.376	2.431	2.444
2.374	2.423	2.436
2.372	2.430	2.441
2.374	2.431	2.431
2.369	2.423	2.436
2.362	2.425	2.435
2.356	2.427	2.429
2.367	2.422	2.420
2.366	2.423	2.403
2.364	2.425	2.398
2.363	2.425	2.398
2.362	2.418	2.402
2.359	2.429	2.400
2.359	2.432	2.401
2.357	2.423	2.410
2.366	2.431	2.412
2.364	2.421	2.405
2.368	2.431	2.398
2.364	2.431	2.402
2.358	2.430	2.395
2.360	2.428	2.400
2.363	2.424	2.402
2.359	2.428	2.405
2.359	2.428	2.412
2.356	2.422	2.407
2.357	2.424	2.389
2.354	2.423	2.373
2.354	2.430	2.361
2.352	2.428	2.353
2.344	2.427	2.354
2.349	2.425	2.372
2.354	2.425	2.375
2.345	2.428	2.382
2.351	2.431	2.403
2.347	2.423	2.407
2.344	2.427	2.409
2.344	2.429	2.416
2.341	2.425	2.410
2.339	2.422	2.406
2.337	2.426	2.407
2.341	2.430	2.397
2.355	2.428	2.392
2.354	2.430	2.384
2.352	2.428	2.381
2.351	2.430	2.372
2.349	2.428	2.371
2.346	2.430	2.370
2.345	2.431	2.363
2.346	2.427	2.366
2.344	2.426	2.370
2.340	2.423	2.393
2.341	2.428	2.400
2.347	2.428	2.400
2.348	2.423	2.397
2.344	2.425	2.392
2.347	2.425	2.391
2.345	2.426	2.387
2.346	2.425	2.404
2.346	2.430	2.404
2.349	2.430	2.410
2.346	2.431	2.412
2.351	2.424	2.423
2.349	2.416	2.424
2.346	2.423	2.424
2.341	2.425	2.414
2.347	2.425	2.406
2.345	2.428	2.397
2.347	2.422	2.396
2.347	2.415	2.387
2.341	2.423	2.374
2.347	2.423	2.372
2.339	2.420	2.382
2.351	2.428	2.384
2.346	2.424	2.389
2.347	2.428	2.397
2.347	2.423	2.396
2.349	2.425	2.387
2.346	2.430	2.381
2.344	2.428	2.382
2.349	2.423	2.380
2.341	2.426	2.384
2.342	2.430	2.379
2.347	2.425	2.375
2.343	2.425	2.374
2.344	2.423	2.386
2.340	2.420	2.400
2.337	2.420	2.412
2.337	2.423	2.422
2.339	2.428	2.432
2.346	2.428	2.441
2.346	2.431	2.441
2.344	2.427	2.444
2.345	2.420	2.444
2.340	2.427	2.447
2.342	2.427	2.447
2.344	2.430	2.447
2.347	2.430	2.431
2.347	2.427	2.427
2.339	2.429	2.424
2.344	2.420	2.412
2.344	2.428	2.403
2.350	2.428	2.401
2.347	2.425	2.390
2.354	2.425	2.392
2.354	2.420	2.387
2.356	2.427	2.394
2.351	2.430	2.395
2.349	2.428	2.387
2.349	2.425	2.393
2.347	2.423	2.397
2.348	2.429	2.398
2.347	2.425	2.389
2.351	2.430	2.397
2.344	2.427	2.407
2.346	2.428	2.407
2.349	2.420	2.407
2.351	2.425	2.415
2.358	2.417	2.429
2.349	2.423	2.426
2.357	2.425	2.439
2.351	2.430	2.434
2.356	2.425	2.434
2.359	2.426	2.429
2.356	2.425	2.438
2.358	2.428	2.447
2.354	2.422	2.450
2.361	2.423	2.449
2.354	2.423	2.457
2.356	2.422	2.456
2.353	2.425	2.441
2.354	2.423	2.428
2.351	2.428	2.427
2.356	2.428	2.425
2.351	2.423	2.422
2.349	2.431	2.424
2.344	2.431	2.439
2.357	2.425	2.451
2.352	2.435	2.461
2.357	2.425	2.466
2.346	2.430	2.462
2.351	2.430	2.459
2.361	2.430	2.467
2.361	2.427	2.465
2.361	2.428	2.463
2.358	2.428	2.472
2.357	2.428	2.473
2.354	2.427	2.469
2.356	2.430	2.467
2.359	2.426	2.467
2.369	2.428	2.474
2.368	2.428	2.461
2.364	2.428	2.453
2.366	2.430	2.448
2.371	2.430	2.464
2.369	2.429	2.469
2.370	2.427	2.467
2.366	2.430	2.464
2.368	2.430	2.451
2.361	2.429	2.450
2.364	2.429	2.456
2.361	2.427	2.454
2.361	2.432	2.457
2.361	2.435	2.451
2.362	2.431	2.446
2.362	2.430	2.441
2.359	2.430	2.434
2.359	2.433	2.423
2.356	2.427	2.417
2.361	2.430	2.422
2.359	2.430	2.419
2.361	2.430	2.439
2.366	2.431	2.447
2.364	2.427	2.454
2.364	2.429	2.446
2.357	2.425	2.442
2.361	2.426	2.442
2.363	2.430	2.433
2.366	2.430	2.429
2.366	2.430	2.431
2.366	2.430	2.434
2.371	2.428	2.429
2.372	2.430	2.431
2.367	2.431	2.434
2.376	2.426	2.441
2.372	2.427	2.439
2.366	2.428	2.439
2.371	2.431	2.441
2.366	2.430	2.441
2.360	2.430	2.451
2.369	2.427	2.456
2.359	2.429	2.461
2.369	2.425	2.459
2.372	2.430	2.451
2.381	2.425	2.446
2.381	2.425	2.446
2.378	2.427	2.442
2.378	2.421	2.437
2.380	2.427	2.431
2.374	2.423	2.425
2.376	2.430	2.422
2.371	2.428	2.410
2.371	2.431	2.410
2.369	2.425	2.407
2.371	2.428	2.402
2.359	2.428	2.406
2.363	2.430	2.404
2.364	2.426	2.400
2.368	2.425	2.403
2.367	2.430	2.404
2.372	2.427	2.412
2.375	2.427	2.424
2.376	2.432	2.449
2.376	2.430	2.455
2.378	2.428	2.456
2.376	2.430	2.451
2.367	2.427	2.447
2.366	2.430	2.451
2.371	2.430	2.452
2.367	2.428	2.436
2.369	2.429	2.430
2.369	2.429	2.424
2.369	2.423	2.414
2.371	2.430	2.412
2.366	2.428	2.412
2.366	2.425	2.415
2.363	2.428	2.417
2.359	2.422	2.424
2.362	2.427	2.422
2.361	2.428	2.416
2.361	2.427	2.413
2.361	2.425	2.407
2.359	2.429	2.394
2.359	2.431	2.384
2.364	2.425	2.387
2.361	2.430	2.389
2.364	2.428	2.387
2.365	2.431	2.386
2.364	2.430	2.387
2.364	2.431	2.392
2.354	2.431	2.390
2.352	2.428	2.394
2.361	2.431	2.406
2.363	2.428	2.412
2.361	2.428	2.410
2.373	2.431	2.413
2.369	2.426	2.422
2.365	2.430	2.419
2.371	2.430	2.424
2.378	2.428	2.430
2.372	2.426	2.434
2.369	2.430	2.436
2.368	2.430	2.430
2.367	2.425	2.432
2.359	2.428	2.424
2.367	2.430	2.417
2.362	2.431	2.409
2.364	2.431	2.412
2.364	2.424	2.406
2.361	2.427	2.400
2.361	2.430	2.392
2.364	2.430	2.400
2.364	2.425	2.407
2.362	2.423	2.417
2.360	2.428	2.428
2.360	2.427	2.426
2.362	2.427	2.442
2.359	2.425	2.454
2.362	2.425	2.457
2.366	2.425	2.466
2.363	2.427	2.462
2.368	2.421	2.445
2.369	2.430	2.431
2.364	2.428	2.425
2.363	2.428	2.419
2.359	2.432	2.412
2.357	2.423	2.399
2.361	2.422	2.393
2.354	2.427	2.395
2.351	2.433	2.386
2.354	2.430	2.385
2.351	2.432	2.401
2.349	2.429	2.420
2.357	2.422	2.442
2.349	2.428	2.445
2.354	2.428	2.444
2.358	2.428	2.436
2.356	2.428	2.426
2.359	2.427	2.418
2.361	2.430	2.412
2.361	2.428	2.398
2.364	2.432	2.402
2.363	2.430	2.406
2.354	2.426	2.402
2.364	2.429	2.402
2.366	2.425	2.408
2.361	2.425	2.410
2.363	2.430	2.410
2.359	2.428	2.414
2.356	2.425	2.404
2.354	2.425	2.389
2.348	2.430	2.380
2.348	2.425	2.367
2.346	2.425	2.368
2.354	2.421	2.388
2.351	2.428	2.406
2.349	2.426	2.419
2.347	2.420	2.425
2.351	2.423	2.424
2.349	2.425	2.414
2.347	2.425	2.417
2.343	2.427	2.412
2.349	2.430	2.402
2.344	2.422	2.392
2.354	2.423	2.392
2.354	2.425	2.399
2.352	2.420	2.404
2.346	2.423	2.405
2.359	2.424	2.402
2.353	2.424	2.405
2.345	2.417	2.407
2.351	2.423	2.412
2.351	2.425	2.420
2.349	2.425	2.424
2.356	2.425	2.420
2.349	2.426	2.415
2.351	2.427	2.410
2.355	2.428	2.402
2.346	2.425	2.397
2.344	2.424	2.388
2.341	2.420	2.389
2.344	2.422	2.400
2.351	2.422	2.401
2.346	2.425	2.409
2.347	2.423	2.405
2.351	2.425	2.412
2.347	2.425	2.412
2.344	2.424	2.422
2.343	2.424	2.424
2.342	2.425	2.436
2.347	2.423	2.441
2.349	2.426	2.444
2.346	2.429	2.442
2.349	2.420	2.443
2.346	2.423	2.459
2.342	2.421	2.469
2.348	2.418	2.480
2.346	2.423	2.479
2.346	2.427	2.464
2.342	2.420	2.462
2.351	2.427	2.456
2.349	2.428	2.458
2.351	2.428	2.461
2.346	2.423	2.463
2.344	2.429	2.462
2.346	2.428	2.444
2.350	2.413	2.441
2.347	2.418	2.436
2.349	2.420	2.443
2.354	2.425	2.444
2.351	2.420	2.439
2.351	2.419	2.437
2.354	2.423	2.426
2.344	2.423	2.415
2.349	2.423	2.409
2.342	2.425	2.408
2.342	2.423	2.407
2.346	2.426	2.407
2.344	2.424	2.412
2.342	2.430	2.412
2.349	2.423	2.403
2.349	2.431	2.404
2.352	2.423	2.402
2.348	2.425	2.404
2.346	2.430	2.407
2.354	2.425	2.410
2.356	2.420	2.407
2.351	2.428	2.407
2.354	2.428	2.404
2.351	2.431	2.407
2.354	2.430	2.415
2.349	2.430	2.416
2.348	2.425	2.413
2.345	2.424	2.415
2.346	2.427	2.414
2.347	2.423	2.427
2.352	2.423	2.439
2.351	2.421	2.439
2.352	2.428	2.441
2.348	2.428	2.454
2.349	2.426	2.448
2.352	2.427	2.434
2.346	2.423	2.415
2.351	2.423	2.420
2.346	2.426	2.422
2.352	2.428	2.425
2.349	2.430	2.425
2.356	2.430	2.433
2.351	2.428	2.438
2.351	2.425	2.441
2.356	2.425	2.439
2.364	2.425	2.446
2.354	2.422	2.443
2.356	2.432	2.439
2.352	2.432	2.441
2.356	2.425	2.441
2.358	2.425	2.442
2.351	2.422	2.442
2.349	2.426	2.434
2.351	2.425	2.438
2.361	2.430	2.432
2.364	2.424	2.432
2.366	2.427	2.442
2.359	2.427	2.444
2.361	2.428	2.442
2.363	2.429	2.433
2.361	2.426	2.433
2.362	2.425	2.436
2.364	2.430	2.424
2.361	2.425	2.424
2.366	2.423	2.434
2.361	2.423	2.434
2.364	2.424	2.444
2.371	2.425	2.447
2.369	2.427	2.449
2.366	2.427	2.459
2.356	2.428	2.458
2.358	2.431	2.450
2.359	2.428	2.441
2.364	2.425	2.436
2.363	2.423	2.444
2.362	2.423	2.446
2.359	2.423	2.449
2.356	2.430	2.445
2.359	2.425	2.442
2.369	2.427	2.442
2.360	2.430	2.444
2.364	2.428	2.442
2.369	2.425	2.439
2.369	2.428	2.434
2.364	2.427	2.442
2.359	2.427	2.439
2.367	2.432	2.431
2.361	2.425	2.432
2.356	2.430	2.423
2.364	2.428	2.426
2.359	2.427	2.429
2.359	2.423	2.427
2.364	2.428	2.427
2.359	2.425	2.424
2.361	2.427	2.421
2.362	2.423	2.429
2.366	2.425	2.424
2.366	2.428	2.427
2.368	2.430	2.450
2.366	2.431	2.451
2.369	2.430	2.462
2.369	2.431	2.466
2.364	2.429	2.467
2.366	2.430	2.456
2.369	2.424	2.443
2.364	2.431	2.444
2.366	2.428	2.456
2.368	2.431	2.451
2.367	2.429	2.454
2.365	2.430	2.457
2.366	2.423	2.451
2.371	2.427	2.446
2.373	2.430	2.447
2.369	2.426	2.449
2.369	2.430	2.444
2.369	2.431	2.443
2.374	2.427	2.449
2.365	2.425	2.451
2.364	2.428	2.449
2.369	2.433	2.451
2.364	2.431	2.442
2.369	2.432	2.429
2.364	2.426	2.424
2.358	2.430	2.407
2.366	2.427	2.397
2.358	2.421	2.400
2.366	2.423	2.403
2.368	2.428	2.402
2.366	2.425	2.397
2.360	2.425	2.397
2.364	2.428	2.396
2.359	2.423	2.389
2.359	2.421	2.414
2.361	2.432	2.424
2.356	2.426	2.436
2.362	2.428	2.438
2.362	2.420	2.442
2.356	2.426	2.446
2.359	2.430	2.448
2.356	2.428	2.452
2.357	2.425	2.446
2.351	2.423	2.445
2.349	2.431	2.445
2.349	2.425	2.445
2.350	2.428	2.444
2.345	2.432	2.440
2.344	2.426	2.413
2.347	2.423	2.413
2.344	2.430	2.407
2.347	2.423	2.402
2.347	2.423	2.399
2.342	2.423	2.395
2.353	2.428	2.388
2.345	2.431	2.388
2.352	2.427	2.382
2.354	2.429	2.378
2.354	2.431	2.377
2.349	2.425	2.375
2.349	2.424	2.377
2.345	2.420	2.396
2.342	2.425	2.402
2.344	2.423	2.403
2.349	2.423	2.387
2.345	2.423	2.382
2.342	2.422	2.375
2.347	2.423	2.380
2.344	2.423	2.381
2.342	2.423	2.371
2.344	2.424	2.363
2.344	2.424	2.358
2.347	2.417	2.354
2.345	2.418	2.352
2.340	2.422	2.356
2.349	2.423	2.353
2.347	2.425	2.357
2.347	2.425	2.375
2.347	2.420	2.388
2.349	2.423	2.386
2.346	2.428	2.399
2.338	2.425	2.409
2.342	2.428	2.412
2.345	2.419	2.407
2.342	2.426	2.397
2.349	2.419	2.381
2.344	2.428	2.370
2.351	2.423	2.370
2.346	2.426	2.370
2.339	2.423	2.369
2.346	2.424	2.376
2.350	2.422	2.383
2.347	2.425	2.393
2.349	2.423	2.392
2.349	2.413	2.387
2.349	2.428	2.393
2.352	2.431	2.404
2.346	2.424	2.406
2.344	2.428	2.407
2.344	2.430	2.405
2.345	2.425	2.400
2.342	2.428	2.397
2.339	2.420	2.391
2.342	2.420	2.390
2.344	2.420	2.389
2.342	2.425	2.403
2.339	2.425	2.419
2.351	2.425	2.427
2.348	2.424	2.427
2.352	2.419	2.425
2.341	2.420	2.420
2.347	2.428	2.412
2.347	2.430	2.400
2.348	2.425	2.400
2.347	2.425	2.394
2.342	2.425	2.392
2.347	2.423	2.392
2.344	2.428	2.390
2.347	2.431	2.386
2.343	2.423	2.403
2.344	2.418	2.407
2.339	2.422	2.413
2.342	2.420	2.416
2.352	2.425	2.426
2.349	2.419	2.437
2.344	2.423	2.442
2.349	2.425	2.440
2.347	2.424	2.438
2.342	2.427	2.431
2.347	2.418	2.439
2.344	2.425	2.449
2.349	2.424	2.456
2.344	2.429	2.462
2.347	2.420	2.456
2.349	2.422	2.444
2.341	2.423	2.433
2.345	2.425	2.420
2.343	2.426	2.424
2.342	2.423	2.420
2.346	2.420	2.424
2.344	2.423	2.426
2.344	2.421	2.436
2.344	2.424	2.446
2.339	2.421	2.453
2.344	2.419	2.453
2.348	2.424	2.459
2.345	2.424	2.462
2.349	2.423	2.466
2.350	2.422	2.470
2.344	2.426	2.472
2.344	2.423	2.484
2.347	2.420	2.496
2.344	2.419	2.498
2.340	2.421	2.502
2.345	2.428	2.513
2.342	2.418	2.516
2.342	2.425	2.506
2.340	2.421	2.496
2.338	2.422	2.493
2.349	2.423	2.488
2.347	2.423	2.480
2.341	2.423	2.471
2.346	2.426	2.467
2.352	2.420	2.462
2.338	2.427	2.456
2.349	2.423	2.455
2.346	2.420	2.453
2.354	2.421	2.447
2.354	2.428	2.449
2.344	2.419	2.451
2.351	2.421	2.457
2.354	2.421	2.471
2.358	2.423	2.482
2.351	2.424	2.483
2.349	2.423	2.464
2.351	2.425	2.464
2.354	2.417	2.461
2.357	2.421	2.448
2.354	2.415	2.441
2.353	2.423	2.439
2.350	2.423	2.425
2.348	2.417	2.424
2.345	2.428	2.423
2.351	2.423	2.429
2.352	2.430	2.432
2.352	2.420	2.438
2.349	2.420	2.441
2.351	2.420	2.434
2.361	2.420	2.438
2.354	2.424	2.427
2.367	2.420	2.429
2.355	2.420	2.442
2.361	2.425	2.442
2.358	2.432	2.432
2.359	2.427	2.420
2.356	2.420	2.423
2.359	2.428	2.421
2.356	2.428	2.420
2.356	2.426	2.436
2.365	2.427	2.449
2.361	2.428	2.466
2.356	2.424	2.480
2.354	2.428	2.486
2.354	2.427	2.482
2.351	2.431	2.471
2.349	2.429	2.467
2.356	2.428	2.461
2.357	2.427	2.462
2.357	2.430	2.470
2.364	2.433	2.473
2.366	2.430	2.469
2.364	2.423	2.466
2.368	2.431	2.477
2.373	2.430	2.476
2.376	2.430	2.473
2.366	2.431	2.477
2.369	2.430	2.478
2.369	2.428	2.483
2.366	2.426	2.479
2.374	2.420	2.471
2.373	2.428	2.469
2.371	2.428	2.464
2.369	2.435	2.461
2.366	2.425	2.459
2.368	2.430	2.464
2.366	2.429	2.485
2.363	2.427	2.501
2.365	2.430	2.498
2.369	2.430	2.496
2.371	2.425	2.486
2.371	2.429	2.486
2.374	2.429	2.476
2.373	2.425	2.479
2.374	2.425	2.469
2.372	2.428	2.462
2.370	2.427	2.448
2.374	2.427	2.443
2.371	2.426	2.437
2.371	2.430	2.434
2.374	2.430	2.429
2.366	2.430	2.432
2.366	2.428	2.431
2.363	2.428	2.442
2.364	2.429	2.439
2.364	2.428	2.442
2.356	2.430	2.451
2.359	2.430	2.446
2.356	2.430	2.453
2.356	2.425	2.456
2.366	2.430	2.457
2.369	2.430	2.462
2.366	2.423	2.451
2.362	2.431	2.444
2.362	2.430	2.441
2.361	2.434	2.438
2.358	2.430	2.429
2.363	2.426	2.412
2.359	2.430	2.406
2.358	2.433	2.395
2.357	2.431	2.393
2.359	2.427	2.396
2.359	2.428	2.404
2.362	2.429	2.405
2.362	2.425	2.419
2.359	2.428	2.424
2.361	2.428	2.431
2.358	2.427	2.425
2.361	2.424	2.425
2.363	2.421	2.414
2.363	2.428	2.407
2.357	2.428	2.406
2.364	2.430	2.402
2.361	2.430	2.396
2.363	2.432	2.395
2.359	2.430	2.397
2.358	2.429	2.402
2.368	2.435	2.410
2.364	2.430	2.417
2.358	2.430	2.425
2.362	2.425	2.434
2.360	2.426	2.426
2.359	2.433	2.420
2.356	2.425	2.414
2.354	2.423	2.418
2.349	2.425	2.424
2.359	2.427	2.429
2.361	2.430	2.442
2.366	2.428	2.464
2.367	2.428	2.475
2.374	2.430	2.470
2.372	2.428	2.468
2.371	2.426	2.459
2.369	2.427	2.456
2.369	2.432	2.454
2.369	2.427	2.444
2.370	2.430	2.435
2.369	2.420	2.429
2.369	2.423	2.433
2.361	2.431	2.437
2.355	2.430	2.442
2.359	2.430	2.449
2.361	2.428	2.444
2.361	2.428	2.442
2.358	2.427	2.431
2.358	2.433	2.436
2.361	2.430	2.441
2.361	2.431	2.441
2.363	2.423	2.444
2.364	2.423	2.451
2.364	2.425	2.444
2.361	2.430	2.442
2.361	2.425	2.423
2.358	2.431	2.425
2.363	2.427	2.422
2.363	2.425	2.414
2.369	2.432	2.420
2.362	2.426	2.427
2.365	2.422	2.433
2.356	2.429	2.448
2.354	2.427	2.453
2.359	2.429	2.453
2.351	2.428	2.446
2.346	2.430	2.441
2.354	2.429	2.433
2.354	2.430	2.425
2.359	2.430	2.412
2.356	2.428	2.410
2.353	2.429	2.407
2.361	2.431	2.397
2.356	2.421	2.391
2.351	2.425	2.407
2.349	2.428	2.408
2.356	2.428	2.418
2.349	2.428	2.423
2.353	2.430	2.431
2.363	2.425	2.432
2.359	2.425	2.441
2.356	2.421	2.439
2.358	2.420	2.430
2.359	2.430	2.424
2.365	2.423	2.420
2.364	2.425	2.419
2.366	2.428	2.426
2.367	2.423	2.431
2.370	2.425	2.430
2.361	2.430	2.424
2.369	2.425	2.419
2.364	2.427	2.410
2.361	2.430	2.406
2.357	2.430	2.406
2.364	2.426	2.404
2.359	2.426	2.397
2.364	2.432	2.384
2.364	2.432	2.374
2.361	2.430	2.368
2.361	2.429	2.385
2.351	2.421	2.392
2.356	2.431	2.394
2.361	2.425	2.405
2.358	2.421	2.419
2.359	2.425	2.426
2.359	2.425	2.428
2.360	2.423	2.429
2.364	2.426	2.429
2.361	2.425	2.425
2.361	2.423	2.426
2.357	2.430	2.424
2.358	2.428	2.420
2.356	2.427	2.416
2.358	2.430	2.409
2.355	2.428	2.413
2.354	2.423	2.408
2.356	2.425	2.398
2.349	2.425	2.395
2.355	2.428	2.382
2.352	2.428	2.382
2.353	2.424	2.385
2.346	2.431	2.380
2.349	2.428	2.386
2.359	2.425	2.395
2.355	2.430	2.407
2.349	2.425	2.422
2.359	2.428	2.432
2.362	2.423	2.433
2.354	2.423	2.434
2.359	2.420	2.424
2.351	2.425	2.427
2.354	2.426	2.441
2.350	2.427	2.439
2.349	2.426	2.450
2.352	2.415	2.456
2.347	2.423	2.449
2.351	2.425	2.440
2.349	2.429	2.424
2.354	2.430	2.417
2.349	2.427	2.412
2.352	2.427	2.407
2.342	2.425	2.410
2.348	2.430	2.420
2.346	2.421	2.417
2.351	2.430	2.416
2.354	2.423	2.427
2.354	2.417	2.437
2.351	2.425	2.444
2.361	2.417	2.437
2.361	2.430	2.439
2.354	2.427	2.450
2.359	2.425	2.461
2.361	2.422	2.469
2.359	2.425	2.479
2.364	2.420	2.474
2.354	2.431	2.470
2.358	2.423	2.456
2.351	2.429	2.441
2.356	2.432	2.434
2.357	2.430	2.431
2.356	2.430	2.442
2.352	2.430	2.446
2.352	2.431	2.442
2.349	2.425	2.434
2.346	2.428	2.425
2.346	2.420	2.424
2.349	2.423	2.420
2.349	2.430	2.414
2.350	2.421	2.413
2.346	2.420	2.412
2.342	2.419	2.407
2.347	2.425	2.402
2.347	2.426	2.405
2.354	2.423	2.410
2.351	2.425	2.420
2.352	2.420	2.425
2.356	2.427	2.427
2.349	2.423	2.427
2.349	2.420	2.430
2.348	2.423	2.438
2.349	2.420	2.426
2.352	2.427	2.424
2.354	2.425	2.427
2.354	2.425	2.429
2.349	2.431	2.429
2.349	2.425	2.429
2.345	2.420	2.425
2.348	2.425	2.423
2.350	2.427	2.424
2.359	2.425	2.424
2.359	2.427	2.415
2.354	2.428	2.415
2.358	2.428	2.410
2.358	2.426	2.410
2.361	2.428	2.414
2.359	2.423	2.424
2.361	2.430	2.421
2.353	2.428	2.424
2.349	2.422	2.417
2.352	2.428	2.412
2.356	2.425	2.409
2.356	2.429	2.409
2.356	2.425	2.406
2.354	2.425	2.399
2.349	2.431	2.400
2.349	2.433	2.404
2.348	2.424	2.412
2.354	2.423	2.423
2.354	2.425	2.415
2.354	2.430	2.414
2.348	2.430	2.407
2.361	2.430	2.404
2.359	2.428	2.396
2.355	2.429	2.397
2.356	2.427	2.404
2.351	2.430	2.418
2.358	2.426	2.420
2.357	2.435	2.417
2.358	2.431	2.419
2.356	2.431	2.414
2.356	2.428	2.419
2.354	2.424	2.427
2.364	2.426	2.440
2.356	2.428	2.441
2.356	2.425	2.429
2.356	2.428	2.421
2.357	2.424	2.415
2.361	2.425	2.406
2.361	2.420	2.407
2.354	2.431	2.400
2.358	2.427	2.412
2.359	2.417	2.414
2.362	2.423	2.426
2.361	2.425	2.429
2.364	2.430	2.429
2.366	2.430	2.434
2.361	2.430	2.439
2.361	2.430	2.436
2.361	2.428	2.425
2.354	2.428	2.415
2.355	2.428	2.411
2.347	2.430	2.409
2.348	2.427	2.409
2.356	2.433	2.405
2.357	2.430	2.402
2.354	2.428	2.394
2.359	2.430	2.387
2.346	2.428	2.385
2.357	2.428	2.387
2.355	2.428	2.396
2.356	2.430	2.404
2.358	2.430	2.407
2.355	2.428	2.424
2.354	2.431	2.424
2.354	2.430	2.422
2.358	2.429	2.409
2.364	2.428	2.398
2.351	2.428	2.387
2.362	2.427	2.394
2.359	2.431	2.397
2.359	2.423	2.405
2.356	2.428	2.405
2.364	2.429	2.397
2.356	2.430	2.405
2.354	2.426	2.400
2.356	2.423	2.392
2.354	2.424	2.392
2.360	2.431	2.404
2.343	2.425	2.407
2.342	2.430	2.410
2.349	2.428	2.414
2.349	2.430	2.422
2.351	2.430	2.429
2.349	2.425	2.423
2.349	2.422	2.417
2.347	2.423	2.400
2.360	2.430	2.402
2.351	2.425	2.402
2.348	2.428	2.406
2.355	2.429	2.405
2.354	2.424	2.424
2.344	2.427	2.424
2.344	2.423	2.422
2.347	2.431	2.414
2.354	2.425	2.410
2.355	2.428	2.403
2.352	2.430	2.390
2.343	2.428	2.382
2.344	2.423	2.387
2.344	2.425	2.397
2.349	2.425	2.405
2.346	2.424	2.412
2.342	2.426	2.412
2.344	2.420	2.417
2.352	2.428	2.407
2.348	2.420	2.407
2.356	2.425	2.407
2.356	2.424	2.405
2.358	2.427	2.410
2.364	2.423	2.407
2.366	2.423	2.415
2.366	2.423	2.426
2.361	2.425	2.424
2.357	2.424	2.422
2.351	2.434	2.418
2.356	2.425	2.419
2.366	2.427	2.417
2.364	2.430	2.407
2.351	2.430	2.413
2.354	2.420	2.409
2.356	2.423	2.409
2.359	2.425	2.407
2.355	2.430	2.407
2.352	2.431	2.408
2.348	2.428	2.405
2.349	2.421	2.400
2.359	2.431	2.390
2.349	2.421	2.387
2.349	2.421	2.385
2.349	2.418	2.375
2.351	2.420	2.378
2.355	2.422	2.385
2.353	2.423	2.387
2.355	2.418	2.389
2.359	2.420	2.390
2.351	2.423	2.389
2.349	2.415	2.386
2.354	2.425	2.384
2.351	2.428	2.397
2.349	2.425	2.417
2.352	2.425	2.427
2.346	2.425	2.427
2.347	2.423	2.419
2.351	2.420	2.414
2.356	2.427	2.409
2.361	2.422	2.412
2.358	2.425	2.414
2.361	2.422	2.422
2.363	2.431	2.436
2.360	2.429	2.436
2.359	2.423	2.432
2.355	2.422	2.431
2.361	2.425	2.433
2.359	2.425	2.436
2.359	2.423	2.431
2.361	2.428	2.425
2.359	2.428	2.419
2.354	2.430	2.417
2.352	2.422	2.418
2.353	2.427	2.427
2.353	2.425	2.426
2.358	2.426	2.432
2.354	2.429	2.442
2.349	2.419	2.444
2.351	2.425	2.446
2.354	2.430	2.446
2.361	2.422	2.439
2.357	2.420	2.437
2.363	2.420	2.432
2.361	2.424	2.425
2.361	2.427	2.426
2.358	2.427	2.421
2.361	2.420	2.425
2.361	2.425	2.429
2.366	2.420	2.424
2.368	2.430	2.422
2.370	2.424	2.424
2.364	2.430	2.428
2.356	2.430	2.439
2.358	2.423	2.436
2.359	2.423	2.436
2.366	2.423	2.451
2.368	2.423	2.476
2.368	2.431	2.482
2.373	2.430	2.482
2.371	2.429	2.478
2.368	2.427	2.472
2.373	2.430	2.456
2.366	2.430	2.453
2.366	2.433	2.448
2.366	2.426	2.442
2.358	2.425	2.428
2.360	2.437	2.427
2.361	2.430	2.425
2.374	2.431	2.426
2.370	2.430	2.437
2.368	2.428	2.447
2.364	2.430	2.441
2.371	2.426	2.443
2.366	2.425	2.437
2.366	2.428	2.442
2.364	2.426	2.442
2.369	2.425	2.439
2.364	2.423	2.444
2.367	2.425	2.457
2.367	2.425	2.460
2.369	2.423	2.463
2.369	2.423	2.449
2.368	2.426	2.441
2.376	2.423	2.439
2.368	2.426	2.459
2.371	2.423	2.463
2.371	2.420	2.467
2.368	2.431	2.461
2.372	2.428	2.464
2.371	2.428	2.469
2.371	2.430	2.464
2.369	2.427	2.461
2.369	2.420	2.457
2.371	2.427	2.441
2.368	2.423	2.431
2.369	2.428	2.415
2.366	2.426	2.411
2.360	2.423	2.412
2.358	2.424	2.422
2.363	2.430	2.423
2.357	2.425	2.421
2.357	2.423	2.424
2.356	2.430	2.429
2.361	2.423	2.444
2.359	2.424	2.462
2.364	2.426	2.474
2.366	2.430	2.478
2.363	2.431	2.486
2.364	2.430	2.480
2.361	2.428	2.489
2.366	2.426	2.484
2.366	2.423	2.480
2.363	2.431	2.467
2.363	2.428	2.456
2.353	2.423	2.447
2.367	2.435	2.456
2.369	2.430	2.453
2.363	2.430	2.459
2.355	2.423	2.451
2.351	2.426	2.451
2.351	2.431	2.465
2.354	2.427	2.473
2.357	2.417	2.472
2.354	2.430	2.461
2.349	2.430	2.461
2.357	2.423	2.454
2.354	2.425	2.447
2.357	2.428	2.444
2.354	2.427	2.451
2.359	2.427	2.461
2.354	2.426	2.463
2.351	2.425	2.466
2.357	2.427	2.469
2.352	2.427	2.463
2.352	2.422	2.456
2.349	2.422	2.454
2.355	2.423	2.454
2.354	2.423	2.454
2.351	2.423	2.457
2.361	2.423	2.462
2.356	2.427	2.461
2.356	2.425	2.446
2.359	2.425	2.441
2.356	2.426	2.448
2.354	2.418	2.464
2.357	2.431	2.483
2.353	2.419	2.479
2.354	2.427	2.478
2.351	2.430	2.476
2.347	2.425	2.461
2.346	2.431	2.459
2.352	2.428	2.452
2.344	2.427	2.429
2.342	2.420	2.422
2.342	2.422	2.426
2.342	2.425	2.433
2.337	2.418	2.444
2.347	2.417	2.453
2.342	2.419	2.462
2.339	2.420	2.458
2.348	2.422	2.452
2.343	2.420	2.441
2.346	2.418	2.431
2.349	2.425	2.425
2.351	2.430	2.418
2.342	2.420	2.425
2.346	2.423	2.431
2.342	2.431	2.440
2.346	2.428	2.441
2.350	2.425	2.450
2.352	2.425	2.451
2.356	2.425	2.447
2.354	2.420	2.442
2.347	2.420	2.442
2.349	2.423	2.433
2.339	2.423	2.424
2.352	2.420	2.406
2.346	2.423	2.397
2.353	2.428	2.390
2.346	2.423	2.376
2.344	2.423	2.380
2.347	2.424	2.402
2.349	2.430	2.412
2.352	2.420	2.427
2.349	2.422	2.434
2.349	2.420	2.441
2.357	2.425	2.443
2.350	2.425	2.437
2.351	2.430	2.427
2.351	2.425	2.418
2.347	2.423	2.411
2.342	2.425	2.419
2.347	2.425	2.425
2.344	2.427	2.434
2.344	2.422	2.432
2.346	2.423	2.436
2.354	2.427	2.440
2.350	2.423	2.439
2.349	2.426	2.434
2.345	2.430	2.437
2.344	2.428	2.426
2.342	2.422	2.429
2.344	2.427	2.439
2.349	2.427	2.442
2.348	2.425	2.441
2.348	2.428	2.444
2.339	2.427	2.431
2.349	2.428	2.432
2.349	2.427	2.432
2.346	2.427	2.434
2.347	2.428	2.442
2.347	2.428	2.442
2.356	2.420	2.449
2.352	2.425	2.446
2.365	2.425	2.446
2.363	2.425	2.444
2.356	2.430	2.442
2.361	2.423	2.444
2.368	2.427	2.444
2.364	2.427	2.446
2.361	2.427	2.448
2.361	2.428	2.452
2.358	2.431	2.461
2.362	2.427	2.464
2.362	2.426	2.478
2.369	2.428	2.490
2.368	2.417	2.495
2.366	2.430	2.508
2.363	2.428	2.509
2.364	2.426	2.498
2.366	2.428	2.495
2.369	2.424	2.491
2.370	2.423	2.497
2.365	2.427	2.505
2.369	2.430	2.523
2.371	2.430	2.518
2.366	2.425	2.521
2.371	2.426	2.502
2.371	2.430	2.496
2.369	2.425	2.489
2.371	2.425	2.479
2.370	2.426	2.469
2.376	2.432	2.465
2.378	2.431	2.461
2.376	2.423	2.479
2.373	2.425	2.476
2.369	2.428	2.481
2.369	2.423	2.486
2.368	2.425	2.491
2.366	2.428	2.493
2.364	2.427	2.493
2.362	2.425	2.496
2.366	2.430	2.496
2.369	2.426	2.495
2.361	2.426	2.493
2.369	2.423	2.506
2.364	2.421	2.502
2.366	2.428	2.498
2.369	2.426	2.484
2.372	2.431	2.479
2.367	2.425	2.473
2.363	2.428	2.462
2.361	2.430	2.462
2.361	2.425	2.472
2.361	2.431	2.476
2.364	2.429	2.496
2.366	2.429	2.496
2.367	2.433	2.506
2.370	2.425	2.521
2.369	2.430	2.525
2.366	2.430	2.533
2.368	2.433	2.533
2.366	2.430	2.518
2.369	2.433	2.504
2.378	2.427	2.493
2.374	2.426	2.481
2.374	2.428	2.472
2.379	2.428	2.462
2.371	2.425	2.453
2.369	2.437	2.456
2.373	2.434	2.453
2.374	2.425	2.449
2.368	2.430	2.449
2.371	2.431	2.459
2.378	2.430	2.459
2.374	2.434	2.473
2.377	2.430	2.482
2.374	2.430	2.486
2.369	2.430	2.496
2.369	2.430	2.495
2.373	2.429	2.502
2.366	2.429	2.501
2.369	2.426	2.506
2.376	2.422	2.518
2.369	2.431	2.525
2.370	2.430	2.527
2.373	2.430	2.528
2.369	2.431	2.523
2.369	2.430	2.511
2.361	2.432	2.489
2.366	2.431	2.481
2.368	2.429	2.470
2.364	2.430	2.470
2.361	2.434	2.469
2.364	2.431	2.472
2.368	2.430	2.471
2.371	2.430	2.468
2.379	2.430	2.470
2.381	2.431	2.476
2.373	2.430	2.472
2.380	2.430	2.464
2.378	2.431	2.454
2.376	2.427	2.451
2.370	2.427	2.434
2.373	2.428	2.426
2.368	2.426	2.422
2.369	2.428	2.414
2.363	2.430	2.420
2.366	2.425	2.432
2.372	2.428	2.426
2.373	2.433	2.426
2.371	2.425	2.424
2.377	2.425	2.425
2.377	2.430	2.441
2.369	2.430	2.456
2.366	2.430	2.451
2.371	2.427	2.443
2.368	2.429	2.442
2.368	2.433	2.447
2.368	2.430	2.446
2.366	2.432	2.446
2.369	2.428	2.439
2.369	2.433	2.439
2.368	2.430	2.427
2.366	2.428	2.432
2.358	2.428	2.440
2.346	2.431	2.447
2.361	2.430	2.461
2.361	2.431	2.452
2.358	2.423	2.446
2.360	2.431	2.439
2.362	2.427	2.427
2.361	2.430	2.424
2.356	2.428	2.433
2.359	2.425	2.432
2.366	2.428	2.434
2.363	2.427	2.441
2.369	2.424	2.444
2.369	2.430	2.445
2.360	2.430	2.440
2.354	2.423	2.432
2.359	2.434	2.432
2.359	2.429	2.426
2.357	2.425	2.425
2.356	2.430	2.429
2.356	2.428	2.417
2.351	2.433	2.412
2.351	2.429	2.410
2.359	2.427	2.407
2.354	2.426	2.397
2.357	2.427	2.404
2.359	2.430	2.407
2.362	2.430	2.409
2.358	2.434	2.414
2.362	2.432	2.412
2.359	2.431	2.412
2.354	2.428	2.409
2.360	2.431	2.417
2.358	2.430	2.425
2.356	2.430	2.434
2.354	2.427	2.441
2.352	2.428	2.441
2.356	2.430	2.442
2.351	2.430	2.446
2.351	2.433	2.442
2.351	2.429	2.429
2.355	2.429	2.424
2.358	2.429	2.417
2.351	2.435	2.426
2.354	2.430	2.426
2.357	2.433	2.432
2.356	2.428	2.436
2.356	2.435	2.434
2.356	2.430	2.431
2.356	2.428	2.432
2.357	2.428	2.436
2.360	2.430	2.442
2.359	2.430	2.446
2.356	2.431	2.439
2.354	2.429	2.436
2.353	2.430	2.442
2.344	2.430	2.437
2.344	2.430	2.431
2.346	2.431	2.424
2.347	2.425	2.421
2.353	2.430	2.414
2.347	2.430	2.409
2.351	2.430	2.424
2.349	2.428	2.424
2.357	2.433	2.419
2.356	2.426	2.424
2.356	2.429	2.432
2.347	2.431	2.442
2.355	2.431	2.437
2.348	2.430	2.429
2.347	2.431	2.429
2.349	2.430	2.426
2.349	2.430	2.436
2.349	2.431	2.440
2.346	2.430	2.432
2.344	2.428	2.426
2.349	2.433	2.427
2.347	2.431	2.407
2.340	2.430	2.405
2.345	2.423	2.402
2.351	2.432	2.390
2.349	2.427	2.385
2.354	2.431	2.375
2.353	2.428	2.364
2.359	2.430	2.369
2.363	2.429	2.375
2.357	2.425	2.388
2.350	2.430	2.390
2.356	2.428	2.404
2.359	2.430	2.412
2.354	2.429	2.421
2.351	2.423	2.424
2.348	2.431	2.425
2.346	2.430	2.417
2.351	2.430	2.409
2.352	2.430	2.411
2.353	2.430	2.419
2.350	2.425	2.429
2.351	2.430	2.424
2.357	2.433	2.424
2.354	2.431	2.427
2.361	2.426	2.428
2.361	2.429	2.436
2.363	2.427	2.434
2.364	2.425	2.426
2.357	2.430	2.424
2.352	2.428	2.425
2.351	2.421	2.420
2.359	2.430	2.419
2.354	2.430	2.405
2.354	2.433	2.404
2.354	2.430	2.407
2.347	2.423	2.405
2.347	2.427	2.406
2.343	2.427	2.395
2.347	2.425	2.395
2.351	2.425	2.389
2.354	2.426	2.390
2.353	2.430	2.405
2.361	2.427	2.417
2.353	2.425	2.422
2.351	2.427	2.426
2.349	2.420	2.438
2.361	2.425	2.439
2.351	2.420	2.422
2.354	2.428	2.419
2.361	2.426	2.406
2.349	2.425	2.404
2.352	2.430	2.407
2.351	2.428	2.412
2.354	2.423	2.407
2.361	2.425	2.406
2.359	2.423	2.407
2.364	2.430	2.407
2.361	2.425	2.420
2.361	2.426	2.432
2.370	2.431	2.434
2.361	2.430	2.424
2.359	2.431	2.412
2.364	2.432	2.407
2.366	2.425	2.400
2.366	2.426	2.404
2.364	2.428	2.402
2.366	2.427	2.408
2.364	2.427	2.407
2.367	2.425	2.407
2.368	2.428	2.406
2.359	2.425	2.406
2.368	2.428	2.411
2.369	2.425	2.407
2.368	2.424	2.410
2.366	2.428	2.420
2.366	2.428	2.424
2.361	2.430	2.426
2.369	2.425	2.422
2.368	2.427	2.413
2.369	2.423	2.402
2.363	2.434	2.392
2.369	2.425	2.389
2.369	2.430	2.400
2.369	2.428	2.410
2.368	2.427	2.415
2.369	2.424	2.419
2.369	2.432	2.424
2.374	2.428	2.424
2.369	2.427	2.412
2.371	2.430	2.417
2.368	2.430	2.409
2.371	2.430	2.414
2.362	2.430	2.434
2.366	2.424	2.441
2.371	2.430	2.438
2.376	2.430	2.420
2.371	2.430	2.414
2.369	2.422	2.407
2.378	2.431	2.409
2.384	2.429	2.411
2.381	2.430	2.412
2.377	2.431	2.414
2.371	2.427	2.413
2.373	2.423	2.414
2.369	2.425	2.422
2.369	2.427	2.418
2.369	2.425	2.419
2.369	2.425	2.418
2.371	2.426	2.430
2.369	2.429	2.434
2.369	2.430	2.434
2.363	2.425	2.440
2.366	2.428	2.433
2.369	2.425	2.441
2.366	2.420	2.446
2.369	2.430	2.449
2.366	2.430	2.452
2.369	2.429	2.443
2.369	2.425	2.451
2.371	2.430	2.443
2.365	2.424	2.442
2.369	2.428	2.429
2.371	2.428	2.427
2.373	2.428	2.439
2.368	2.427	2.445
2.366	2.430	2.434
2.366	2.431	2.422
2.364	2.435	2.407
2.362	2.431	2.404
2.370	2.429	2.407
2.359	2.423	2.424
2.361	2.428	2.427
2.356	2.430	2.417
2.361	2.431	2.412
2.359	2.432	2.410
2.363	2.419	2.414
2.362	2.427	2.428
2.362	2.423	2.437
2.364	2.428	2.439
2.364	2.427	2.446
2.366	2.425	2.441
2.363	2.426	2.439
2.361	2.430	2.442
2.364	2.430	2.442
2.364	2.426	2.441
2.367	2.424	2.439
2.359	2.431	2.432
2.359	2.424	2.427
2.356	2.423	2.436
2.354	2.424	2.451
2.354	2.425	2.454
2.351	2.423	2.444
2.356	2.428	2.438
2.351	2.423	2.438
2.357	2.426	2.420
2.360	2.425	2.422
2.361	2.431	2.417
2.356	2.431	2.414
2.353	2.426	2.431
2.359	2.422	2.444
2.359	2.428	2.460
2.361	2.431	2.457
2.364	2.430	2.456
2.367	2.431	2.456
2.363	2.425	2.466
2.360	2.430	2.478
2.354	2.426	2.479
2.354	2.423	2.469
2.357	2.423	2.454
2.356	2.427	2.439
2.361	2.431	2.427
2.354	2.429	2.427
2.357	2.423	2.425
2.357	2.430	2.419
2.357	2.428	2.422
2.356	2.424	2.419
2.359	2.428	2.426
2.356	2.430	2.432
2.356	2.431	2.430
2.351	2.425	2.426
2.349	2.430	2.424
2.349	2.431	2.409
2.360	2.431	2.402
2.357	2.427	2.389
2.359	2.429	2.409
2.351	2.423	2.406
2.351	2.430	2.415
2.356	2.430	2.410
2.348	2.431	2.407
2.347	2.430	2.407
2.359	2.423	2.404
2.355	2.427	2.412
2.357	2.423	2.414
2.349	2.420	2.411
2.346	2.427	2.419
2.351	2.424	2.424
2.354	2.423	2.429
2.353	2.428	2.443
2.357	2.428	2.459
2.354	2.425	2.457
2.351	2.428	2.456
2.351	2.428	2.451
2.356	2.423	2.456
2.346	2.425	2.449
2.351	2.429	2.444
2.351	2.421	2.439
2.358	2.426	2.434
2.354	2.423	2.420
2.354	2.425	2.402
2.360	2.423	2.387
2.356	2.423	2.386
2.356	2.425	2.388
2.349	2.427	2.383
2.354	2.423	2.383
2.349	2.431	2.389
2.348	2.430	2.392
2.359	2.430	2.392
2.351	2.429	2.397
2.357	2.430	2.407
2.354	2.429	2.420
2.352	2.425	2.424
2.356	2.425	2.431
2.359	2.425	2.447
2.361	2.425	2.452
2.358	2.423	2.462
2.354	2.425	2.459
2.351	2.424	2.456
2.354	2.427	2.452
2.357	2.425	2.448
2.354	2.429	2.442
2.349	2.429	2.449
2.349	2.432	2.462
2.346	2.422	2.451
2.356	2.428	2.448
2.357	2.431	2.446
2.369	2.428	2.447
2.363	2.428	2.446
2.358	2.431	2.454
2.358	2.429	2.456
2.366	2.430	2.444
2.359	2.428	2.449
2.361	2.430	2.443
2.358	2.425	2.442
2.359	2.423	2.439
2.351	2.424	2.426
2.354	2.427	2.413
2.348	2.425	2.406
2.350	2.423	2.413
2.359	2.427	2.415
2.354	2.428	2.429
2.352	2.426	2.431
2.351	2.430	2.432
2.351	2.428	2.457
2.354	2.430	2.465
2.349	2.425	2.474
2.353	2.426	2.476
2.347	2.426	2.469
2.347	2.429	2.458
2.354	2.428	2.456
2.358	2.431	2.459
2.356	2.431	2.449
2.354	2.430	2.442
2.359	2.429	2.441
2.357	2.428	2.439
2.356	2.430	2.440
2.351	2.428	2.446
2.349	2.426	2.454
2.349	2.427	2.449
2.346	2.423	2.441
2.356	2.430	2.439
2.356	2.430	2.429
2.349	2.428	2.427
2.354	2.430	2.428
2.346	2.429	2.431
2.343	2.425	2.433
2.342	2.420	2.432
2.344	2.428	2.428
2.349	2.430	2.432
2.346	2.432	2.429
2.351	2.430	2.434
2.341	2.426	2.431
2.349	2.425	2.424
2.347	2.427	2.422
2.342	2.428	2.423
2.344	2.427	2.429
2.344	2.431	2.442
2.349	2.430	2.452
2.342	2.430	2.456
2.347	2.423	2.449
2.346	2.425	2.442
2.340	2.424	2.429
2.338	2.424	2.427
2.338	2.422	2.423
2.342	2.423	2.446
2.347	2.423	2.439
2.344	2.430	2.434
2.344	2.426	2.432
2.342	2.425	2.429
2.349	2.431	2.430
2.347	2.422	2.422
2.354	2.431	2.407
2.342	2.423	2.404
2.351	2.425	2.400
2.352	2.431	2.404
2.354	2.425	2.405
2.351	2.428	2.404
2.344	2.427	2.407
2.347	2.425	2.406
2.347	2.429	2.407
2.347	2.430	2.404
2.346	2.425	2.404
2.346	2.430	2.411
2.349	2.425	2.422
2.349	2.428	2.417
2.341	2.425	2.417
2.351	2.426	2.419
2.351	2.431	2.424
2.352	2.430	2.425
2.355	2.428	2.423
2.360	2.427	2.422
2.359	2.428	2.424
2.364	2.428	2.433
2.361	2.425	2.438
2.361	2.428	2.431
2.354	2.423	2.413
2.348	2.423	2.414
2.352	2.428	2.412
2.351	2.420	2.404
2.355	2.421	2.402
2.352	2.430	2.393
2.344	2.422	2.392
2.347	2.430	2.384
2.351	2.423	2.388
2.348	2.425	2.397
2.356	2.428	2.413
2.347	2.430	2.421
2.352	2.428	2.424
2.352	2.425	2.424
2.359	2.420	2.425
2.351	2.423	2.425
2.348	2.429	2.429
2.349	2.428	2.425
2.346	2.419	2.422
2.349	2.423	2.422
2.349	2.427	2.422
2.356	2.422	2.424
2.351	2.425	2.437
2.357	2.423	2.442
2.351	2.430	2.451
2.359	2.423	2.444
2.349	2.424	2.439
2.351	2.419	2.444
2.349	2.431	2.447
2.346	2.418	2.440
2.346	2.425	2.432
2.357	2.430	2.429
2.352	2.425	2.429
2.349	2.431	2.441
2.356	2.431	2.437
2.349	2.427	2.437
2.349	2.427	2.424
2.351	2.428	2.422
2.349	2.428	2.419
2.344	2.427	2.428
2.346	2.426	2.427
2.347	2.418	2.424
2.349	2.425	2.426
2.340	2.423	2.433
2.344	2.423	2.448
2.349	2.430	2.458
2.351	2.425	2.461
2.356	2.430	2.469
2.353	2.430	2.466
2.355	2.427	2.459
2.356	2.426	2.456
2.359	2.426	2.445
2.362	2.431	2.439
2.361	2.420	2.431
2.356	2.430	2.427
2.359	2.428	2.412
2.356	2.431	2.408
2.358	2.428	2.404
2.354	2.428	2.403
2.359	2.427	2.408
2.357	2.427	2.415
2.356	2.428	2.418
2.356	2.431	2.429
2.364	2.428	2.431
2.364	2.425	2.430
2.359	2.426	2.439
2.356	2.430	2.444
2.357	2.428	2.440
2.356	2.428	2.447
2.358	2.426	2.439
2.362	2.420	2.431
2.359	2.427	2.429
2.356	2.428	2.426
2.361	2.428	2.424
2.361	2.427	2.429
2.361	2.421	2.442
2.362	2.427	2.444
2.354	2.421	2.453
2.359	2.425	2.461
2.364	2.428	2.461
2.352	2.425	2.460
2.351	2.425	2.467
2.361	2.425	2.464
2.354	2.427	2.462
2.354	2.430	2.463
2.362	2.430	2.460
2.355	2.433	2.463
2.358	2.433	2.467
2.354	2.424	2.462
2.351	2.433	2.439
2.359	2.425	2.424
2.363	2.425	2.419
2.361	2.428	2.411
2.366	2.433	2.407
2.365	2.430	2.409
2.367	2.428	2.407
2.366	2.427	2.417
2.367	2.426	2.420
2.363	2.425	2.420
2.369	2.425	2.413
2.369	2.419	2.414
2.366	2.419	2.424
2.364	2.431	2.442
2.367	2.431	2.449
2.360	2.430	2.444
2.361	2.431	2.444
2.364	2.427	2.441
2.356	2.420	2.444
2.361	2.430	2.444
2.359	2.428	2.451
2.358	2.425	2.452
2.361	2.425	2.451
2.357	2.426	2.454
2.360	2.427	2.454
2.359	2.423	2.450
2.358	2.425	2.436
2.361	2.430	2.434
2.361	2.428	2.427
2.358	2.425	2.429
2.361	2.430	2.428
2.362	2.428	2.439
2.370	2.423	2.439
2.367	2.430	2.436
2.364	2.425	2.449
2.358	2.426	2.464
2.361	2.424	2.474
2.359	2.428	2.471
2.356	2.430	2.471
2.366	2.430	2.477
2.354	2.427	2.471
2.352	2.424	2.469
2.353	2.423	2.479
2.354	2.423	2.489
2.354	2.423	2.489
2.349	2.423	2.484
2.349	2.425	2.476
2.351	2.427	2.471
2.351	2.429	2.456
2.352	2.422	2.453
2.355	2.420	2.467
2.356	2.420	2.461
2.349	2.420	2.464
2.354	2.420	2.464
2.354	2.425	2.456
2.359	2.417	2.466
2.358	2.420	2.472
2.359	2.428	2.481
2.352	2.422	2.482
2.357	2.422	2.479
2.347	2.428	2.469
2.354	2.422	2.453
2.357	2.428	2.441
2.351	2.423	2.449
2.356	2.428	2.456
2.355	2.422	2.460
2.354	2.420	2.469
2.361	2.422	2.469
2.354	2.423	2.464
2.354	2.426	2.462
2.353	2.423	2.462
2.356	2.424	2.454
2.354	2.425	2.449
2.359	2.422	2.447
2.351	2.425	2.447
2.349	2.428	2.449
2.352	2.426	2.444
2.357	2.420	2.441
2.353	2.428	2.443
2.354	2.420	2.442
2.356	2.421	2.442
2.349	2.425	2.446
2.361	2.424	2.451
2.355	2.422	2.446
2.361	2.424	2.441
2.356	2.418	2.432
2.359	2.425	2.425
2.354	2.423	2.425
2.359	2.426	2.434
2.354	2.423	2.422
2.355	2.425	2.410
2.349	2.422	2.404
2.346	2.423	2.417
2.349	2.423	2.424
2.349	2.420	2.429
2.344	2.431	2.438
2.349	2.419	2.439
2.349	2.414	2.438
2.344	2.415	2.442
2.347	2.423	2.439
2.339	2.418	2.435
2.354	2.425	2.442
2.352	2.428	2.442
2.347	2.423	2.437
2.352	2.427	2.437
2.348	2.418	2.439
2.356	2.425	2.426
2.359	2.426	2.422
2.357	2.419	2.420
2.354	2.416	2.407
2.353	2.427	2.402
2.349	2.420	2.401
2.356	2.418	2.396
2.357	2.415	2.415
2.353	2.421	2.423
2.346	2.423	2.426
2.351	2.423	2.432
2.347	2.425	2.437
2.359	2.421	2.434
2.363	2.423	2.437
2.361	2.427	2.439
2.359	2.420	2.441
2.354	2.426	2.442
2.355	2.423	2.441
2.353	2.416	2.444
2.354	2.420	2.434
2.354	2.420	2.413
2.353	2.422	2.412
2.348	2.423	2.419
2.344	2.420	2.436
2.344	2.420	2.434
2.345	2.422	2.427
2.348	2.420	2.429
2.345	2.423	2.414
2.346	2.420	2.412
2.346	2.420	2.410
2.347	2.418	2.408
2.344	2.428	2.407
2.347	2.418	2.412
2.344	2.428	2.417
2.347	2.420	2.424
2.344	2.420	2.418
2.337	2.417	2.426
2.347	2.425	2.443
2.347	2.422	2.444
2.354	2.421	2.447
2.346	2.420	2.444
2.354	2.415	2.431
2.357	2.423	2.411
2.354	2.426	2.404
2.357	2.430	2.393
2.351	2.428	2.393
2.354	2.420	2.405
2.358	2.423	2.432
2.351	2.423	2.439
2.353	2.423	2.439
2.351	2.421	2.437
2.357	2.422	2.436
2.362	2.418	2.439
2.358	2.423	2.441
2.356	2.426	2.473
2.356	2.425	2.481
2.356	2.428	2.494
2.361	2.431	2.491
2.363	2.425	2.483
2.358	2.430	2.481
2.369	2.426	2.473
2.359	2.423	2.472
2.366	2.421	2.471
2.351	2.420	2.473
2.362	2.423	2.473
2.358	2.423	2.464
2.358	2.423	2.462
2.359	2.417	2.462
2.358	2.425	2.466
2.361	2.422	2.477
2.361	2.425	2.469
2.352	2.427	2.462
2.359	2.428	2.474
2.359	2.420	2.480
2.361	2.425	2.483
2.351	2.424	2.491
2.351	2.423	2.492
2.356	2.427	2.496
2.364	2.423	2.496
2.364	2.424	2.496
2.353	2.423	2.486
2.364	2.431	2.486
2.364	2.423	2.473
2.369	2.433	2.466
2.361	2.425	2.456
2.361	2.423	2.446
2.353	2.423	2.441
2.356	2.412	2.441
2.359	2.423	2.439
2.363	2.423	2.447
2.354	2.425	2.442
2.359	2.425	2.442
2.354	2.427	2.437
2.361	2.430	2.442
2.363	2.420	2.442
2.366	2.422	2.442
2.366	2.417	2.439
2.363	2.423	2.433
2.364	2.427	2.429
2.358	2.431	2.422
2.354	2.425	2.425
2.361	2.421	2.431
2.356	2.423	2.439
2.363	2.425	2.442
2.359	2.422	2.442
2.361	2.430	2.433
2.359	2.425	2.431
2.363	2.425	2.428
2.361	2.428	2.427
2.361	2.431	2.427
2.361	2.429	2.436
2.362	2.428	2.441
2.356	2.428	2.448
2.366	2.428	2.442
2.366	2.425	2.439
2.361	2.423	2.432
2.361	2.423	2.426
2.363	2.425	2.431
2.364	2.428	2.427
2.364	2.428	2.423
2.367	2.425	2.420
2.369	2.427	2.414
2.364	2.426	2.403
2.361	2.429	2.407
2.354	2.428	2.414
2.357	2.424	2.424
2.359	2.426	2.424
2.354	2.430	2.412
2.356	2.423	2.412
2.360	2.423	2.413
2.358	2.425	2.422
2.359	2.425	2.426
2.363	2.425	2.432
2.359	2.428	2.424
2.360	2.423	2.424
2.357	2.418	2.437
2.359	2.425	2.437
2.364	2.423	2.432
2.369	2.428	2.434
2.368	2.421	2.424
2.361	2.425	2.413
2.369	2.425	2.418
2.366	2.420	2.417
2.361	2.431	2.425
2.357	2.428	2.427
2.351	2.423	2.441
2.351	2.426	2.451
2.357	2.423	2.456
2.359	2.425	2.448
2.352	2.425	2.442
2.357	2.423	2.422
2.354	2.425	2.409
2.352	2.420	2.406
2.359	2.421	2.399
2.356	2.425	2.407
2.354	2.423	2.402
2.357	2.428	2.394
2.349	2.426	2.397
2.349	2.427	2.396
2.344	2.423	2.407
2.352	2.423	2.407
2.346	2.430	2.407
2.354	2.423	2.407
2.349	2.423	2.404
2.349	2.423	2.403
2.349	2.423	2.397
2.346	2.425	2.400
2.351	2.423	2.387
2.346	2.420	2.385
2.356	2.425	2.378
2.351	2.424	2.377
2.352	2.424	2.377
2.359	2.431	2.382
2.359	2.428	2.385
2.359	2.423	2.392
2.359	2.430	2.390
2.369	2.423	2.394
2.364	2.423	2.399
2.364	2.428	2.387
2.364	2.425	2.380
2.360	2.428	2.377
2.360	2.420	2.393
2.364	2.420	2.390
2.359	2.419	2.392
2.357	2.411	2.400
2.357	2.415	2.393
2.358	2.423	2.397
2.359	2.418	2.392
2.354	2.418	2.392
2.357	2.421	2.392
2.361	2.419	2.398
2.366	2.418	2.389
2.357	2.413	2.380
2.357	2.423	2.376
2.356	2.424	2.372
2.351	2.420	2.370
2.352	2.415	2.365
2.348	2.417	2.360
2.353	2.418	2.370
2.344	2.421	2.373
2.342	2.423	2.369
2.350	2.420	2.385
2.346	2.425	2.385
2.344	2.420	2.387
2.344	2.423	2.384
2.354	2.421	2.383
2.341	2.423	2.384
2.350	2.421	2.383
2.342	2.413	2.387
2.339	2.423	2.385
2.347	2.420	2.386
2.341	2.425	2.384
2.344	2.420	2.387
2.349	2.419	2.375
2.347	2.420	2.373
2.346	2.415	2.380
2.342	2.418	2.377
2.338	2.416	2.369
2.347	2.426	2.376
2.349	2.423	2.375
2.356	2.416	2.377
2.353	2.420	2.384
2.348	2.422	2.396
2.349	2.420	2.397
2.348	2.418	2.407
2.352	2.423	2.405
2.343	2.424	2.399
2.342	2.420	2.394
2.342	2.420	2.397
2.345	2.423	2.405
2.342	2.425	2.415
2.341	2.425	2.422
2.342	2.424	2.419
2.351	2.423	2.419
2.353	2.420	2.409
2.347	2.421	2.406
2.346	2.420	2.397
2.349	2.420	2.393
2.341	2.426	2.387
2.349	2.423	2.387
2.359	2.421	2.392
2.358	2.425	2.387
2.355	2.423	2.385
2.349	2.427	2.395
2.348	2.422	2.394
2.349	2.423	2.402
2.354	2.421	2.405
2.354	2.420	2.407
2.359	2.423	2.404
2.359	2.422	2.394
2.359	2.423	2.400
2.359	2.427	2.405
2.355	2.420	2.406
2.351	2.418	2.405
2.346	2.417	2.401
2.344	2.431	2.399
2.342	2.430	2.402
2.344	2.425	2.402
2.340	2.430	2.412
2.341	2.425	2.413
2.345	2.425	2.419
2.345	2.425	2.429
2.345	2.421	2.439
2.348	2.421	2.443
2.356	2.423	2.437
2.349	2.424	2.433
2.354	2.425	2.425
2.359	2.428	2.424
2.357	2.424	2.427
2.357	2.426	2.421
2.346	2.425	2.422
2.345	2.423	2.406
2.344	2.423	2.395
2.339	2.428	2.387
2.339	2.428	2.390
2.344	2.420	2.384
2.339	2.426	2.396
2.337	2.418	2.404
2.342	2.425	2.407
2.343	2.424	2.400
2.342	2.413	2.402
2.339	2.420	2.405
2.346	2.422	2.416
2.344	2.425	2.424
2.351	2.425	2.422
2.347	2.425	2.429
2.361	2.428	2.437
2.354	2.430	2.434
2.355	2.423	2.423
2.355	2.420	2.424
2.354	2.420	2.410
2.349	2.417	2.412
2.351	2.423	2.419
2.349	2.414	2.422
2.348	2.420	2.424
2.349	2.423	2.422
2.347	2.418	2.417
2.354	2.425	2.412
2.351	2.420	2.414
2.349	2.422	2.420
2.351	2.420	2.414
2.349	2.421	2.407
2.349	2.421	2.409
2.356	2.427	2.417
2.349	2.423	2.414
2.352	2.419	2.429
2.353	2.417	2.439
2.361	2.421	2.450
2.362	2.426	2.456
2.359	2.415	2.463
2.359	2.425	2.452
2.364	2.430	2.454
2.365	2.425	2.450
2.354	2.420	2.451
2.364	2.426	2.446
2.362	2.427	2.452
2.364	2.432	2.460
2.361	2.421	2.471
2.356	2.425	2.479
2.359	2.431	2.482
2.361	2.430	2.479
2.358	2.428	2.479
2.366	2.430	2.480
2.361	2.430	2.478
2.361	2.428	2.497
2.359	2.423	2.496
2.359	2.430	2.485
2.359	2.427	2.478
2.359	2.426	2.459
2.354	2.419	2.458
2.351	2.418	2.469
2.344	2.424	2.479
2.351	2.423	2.489
2.360	2.423	2.488
2.353	2.430	2.492
2.349	2.429	2.498
2.356	2.425	2.499
2.358	2.420	2.491
2.356	2.428	2.486
2.355	2.421	2.478
2.352	2.426	2.469
2.354	2.426	2.463
2.348	2.425	2.456
2.347	2.431	2.462
2.341	2.428	2.461
2.349	2.430	2.469
2.345	2.430	2.464
2.349	2.430	2.456
2.344	2.430	2.442
2.347	2.422	2.433
2.352	2.428	2.423
2.352	2.424	2.421
2.351	2.430	2.426
2.356	2.415	2.442
2.356	2.425	2.460
2.359	2.423	2.484
2.361	2.426	2.483
2.361	2.425	2.483
2.363	2.418	2.474
2.364	2.423	2.456
2.358	2.425	2.457
2.362	2.425	2.443
2.361	2.428	2.449
2.354	2.424	2.447
2.349	2.427	2.446
2.356	2.432	2.440
2.353	2.425	2.429
2.351	2.428	2.426
2.351	2.430	2.429
2.360	2.425	2.434
2.354	2.427	2.442
2.346	2.423	2.444
2.349	2.427	2.444
2.347	2.430	2.444
2.351	2.430	2.441
2.358	2.423	2.451
2.358	2.430	2.449
2.354	2.425	2.450
2.359	2.424	2.461
2.362	2.418	2.473
2.361	2.425	2.475
2.361	2.420	2.476
2.357	2.423	2.460
2.369	2.426	2.441
2.361	2.428	2.442
2.359	2.425	2.439
2.356	2.417	2.439
2.357	2.423	2.445
2.358	2.426	2.447
2.358	2.428	2.455
2.354	2.426	2.459
2.359	2.428	2.464
2.351	2.423	2.466
2.353	2.420	2.461
2.349	2.418	2.461
2.357	2.425	2.462
2.352	2.423	2.449
2.354	2.430	2.437
2.344	2.423	2.424
2.354	2.420	2.417
2.349	2.426	2.410
2.356	2.417	2.412
2.358	2.418	2.410
2.356	2.428	2.404
2.357	2.421	2.405
2.357	2.425	2.405
2.359	2.420	2.397
2.351	2.415	2.387
2.356	2.423	2.385
2.355	2.423	2.387
2.356	2.423	2.397
2.349	2.420	2.398
2.354	2.426	2.400
2.356	2.423	2.408
2.345	2.420	2.402
2.344	2.428	2.397
2.352	2.425	2.386
2.339	2.426	2.384
2.345	2.424	2.387
2.351	2.425	2.388
2.346	2.420	2.387
2.347	2.423	2.380
2.346	2.423	2.372
2.352	2.425	2.376
2.351	2.426	2.368
2.354	2.421	2.370
2.357	2.422	2.360
2.354	2.422	2.357
2.356	2.423	2.353
2.358	2.423	2.347
2.366	2.418	2.346
2.358	2.425	2.353
2.361	2.422	2.353
2.364	2.418	2.349
2.360	2.421	2.352
2.359	2.426	2.354
2.356	2.424	2.368
2.359	2.425	2.370
2.361	2.414	2.372
2.357	2.421	2.377
2.362	2.420	2.389
2.362	2.423	2.399
2.358	2.420	2.392
2.360	2.425	2.390
2.364	2.420	2.380
2.358	2.421	2.374
2.356	2.426	2.363
2.351	2.423	2.363
2.356	2.420	2.367
2.361	2.421	2.372
2.347	2.417	2.375
2.348	2.426	2.375
2.349	2.421	2.384
2.352	2.423	2.379
2.349	2.419	2.387
2.351	2.417	2.382
2.353	2.420	2.383
2.354	2.425	2.387
2.354	2.420	2.382
2.354	2.418	2.383
2.357	2.421	2.384
2.348	2.424	2.382
2.351	2.413	2.375
2.347	2.415	2.373
2.346	2.421	2.377
2.346	2.418	2.380
2.352	2.422	2.385
2.354	2.425	2.380
2.350	2.419	2.370
2.356	2.425	2.366
2.350	2.423	2.365
2.349	2.425	2.361
2.351	2.425	2.362
2.361	2.424	2.360
2.354	2.423	2.354
2.349	2.417	2.364
2.351	2.425	2.361
2.352	2.419	2.364
2.356	2.418	2.380
2.349	2.420	2.395
2.358	2.420	2.412
2.346	2.425	2.426
2.359	2.422	2.427
2.363	2.425	2.434
2.361	2.421	2.442
2.359	2.415	2.454
2.364	2.418	2.461
2.357	2.418	2.459
2.356	2.415	2.443
2.356	2.420	2.440
2.364	2.423	2.431
2.353	2.420	2.434
2.354	2.415	2.436
2.349	2.413	2.432
2.354	2.418	2.429
2.367	2.418	2.431
2.356	2.417	2.422
2.351	2.420	2.425
2.354	2.424	2.445
2.352	2.423	2.453
2.349	2.415	2.444
2.351	2.413	2.436
2.356	2.419	2.441
2.356	2.423	2.440
2.352	2.421	2.446
2.349	2.421	2.457
2.354	2.420	2.452
2.359	2.420	2.449
2.361	2.424	2.441
2.363	2.424	2.431
2.363	2.428	2.437
2.359	2.421	2.439
2.357	2.423	2.429
2.359	2.425	2.424
2.364	2.423	2.431
2.360	2.423	2.432
2.361	2.425	2.438
2.368	2.423	2.441
2.366	2.421	2.439
2.363	2.423	2.432
2.364	2.422	2.434
2.366	2.423	2.433
2.365	2.418	2.437
2.363	2.418	2.437
2.366	2.420	2.439
2.369	2.420	2.436
2.369	2.421	2.432
2.366	2.422	2.426
2.366	2.420	2.425
2.366	2.421	2.427
2.369	2.421	2.427
2.367	2.421	2.426
2.363	2.423	2.430
2.360	2.423	2.436
2.361	2.425	2.438
2.359	2.425	2.430
2.354	2.423	2.433
2.351	2.425	2.442
2.359	2.420	2.450
2.358	2.420	2.451
2.349	2.421	2.446
2.354	2.425	2.447
2.348	2.427	2.439
2.351	2.425	2.432
2.351	2.419	2.421
2.351	2.421	2.422
2.348	2.420	2.420
2.349	2.415	2.414
2.347	2.421	2.412
2.352	2.420	2.419
2.350	2.426	2.434
2.354	2.425	2.435
2.354	2.423	2.439
2.351	2.419	2.446
2.349	2.428	2.451
2.358	2.423	2.459
2.356	2.420	2.448
2.354	2.417	2.456
2.352	2.423	2.459
2.351	2.421	2.461
2.340	2.420	2.459
2.349	2.416	2.459
2.351	2.423	2.456
2.344	2.418	2.453
2.344	2.419	2.457
2.344	2.423	2.451
2.346	2.420	2.449
2.349	2.423	2.436
2.347	2.426	2.432
2.351	2.429	2.438
2.356	2.424	2.442
2.358	2.422	2.443
2.356	2.420	2.452
2.356	2.425	2.445
2.356	2.423	2.449
2.356	2.420	2.456
2.349	2.425	2.447
2.346	2.423	2.456
2.346	2.421	2.461
2.356	2.420	2.460
2.354	2.428	2.448
2.359	2.422	2.443
2.346	2.424	2.440
2.347	2.421	2.434
2.349	2.425	2.447
2.349	2.418	2.467
2.343	2.425	2.473
2.347	2.420	2.479
2.349	2.418	2.488
2.356	2.423	2.496
2.358	2.423	2.503
2.353	2.428	2.511
2.351	2.418	2.505
2.354	2.415	2.486
2.359	2.426	2.476
2.357	2.422	2.466
2.346	2.420	2.468
2.352	2.424	2.477
2.346	2.425	2.481
2.346	2.420	2.476
2.351	2.420	2.478
2.349	2.420	2.481
2.344	2.425	2.491
2.340	2.417	2.498
2.348	2.421	2.509
2.351	2.419	2.498
2.349	2.419	2.488
2.349	2.422	2.474
2.341	2.417	2.456
2.346	2.423	2.443
2.344	2.418	2.439
2.339	2.418	2.432
2.344	2.420	2.429
2.341	2.415	2.431
2.341	2.425	2.434
2.349	2.418	2.437
2.344	2.421	2.439
2.342	2.421	2.437
2.342	2.419	2.429
2.341	2.420	2.440
2.347	2.420	2.437
2.342	2.421	2.455
2.342	2.425	2.458
2.340	2.418	2.459
2.344	2.416	2.447
2.344	2.413	2.449
2.346	2.420	2.462
2.339	2.423	2.469
2.341	2.418	2.482
2.346	2.421	2.484
2.346	2.422	2.476
2.351	2.425	2.472
2.342	2.419	2.464
2.339	2.420	2.460
2.339	2.423	2.444
2.346	2.418	2.437
2.344	2.418	2.431
2.346	2.413	2.437
2.349	2.421	2.443
2.344	2.420	2.459
2.346	2.420	2.466
2.348	2.426	2.462
2.349	2.421	2.446
2.349	2.423	2.434
2.350	2.420	2.431
2.351	2.418	2.435
2.356	2.419	2.432
2.347	2.423	2.432
2.347	2.418	2.424
2.347	2.418	2.414
2.349	2.418	2.413
2.349	2.420	2.417
2.341	2.415	2.422
2.345	2.417	2.429
2.348	2.413	2.431
2.349	2.416	2.432
2.349	2.413	2.420
2.344	2.418	2.416
2.346	2.420	2.403
2.347	2.416	2.397
2.344	2.418	2.397
2.347	2.415	2.401
2.349	2.414	2.415
2.354	2.420	2.419
2.354	2.418	2.420
2.351	2.420	2.421
2.349	2.426	2.419
2.351	2.421	2.422
2.351	2.418	2.429
2.351	2.417	2.435
2.351	2.415	2.424
2.354	2.415	2.432
2.359	2.421	2.429
2.359	2.413	2.429
2.347	2.420	2.426
2.349	2.418	2.431
2.349	2.420	2.417
2.347	2.416	2.407
2.351	2.426	2.394
2.352	2.420	2.379
2.347	2.419	2.378
2.346	2.422	2.372
2.349	2.410	2.371
2.341	2.416	2.365
2.341	2.413	2.367
2.343	2.413	2.357
2.342	2.422	2.362
2.342	2.417	2.356
2.342	2.418	2.350
2.347	2.421	2.353
2.346	2.417	2.372
2.345	2.422	2.386
2.354	2.418	2.385
2.344	2.418	2.393
2.354	2.420	2.404
2.357	2.418	2.420
2.356	2.423	2.436
2.351	2.417	2.439
2.347	2.420	2.443
2.349	2.415	2.442
2.345	2.423	2.437
2.345	2.413	2.424
2.340	2.424	2.419
2.345	2.418	2.409
2.347	2.416	2.414
2.342	2.417	2.415
2.346	2.420	2.417
2.344	2.418	2.422
2.342	2.423	2.423
2.339	2.419	2.434
2.342	2.423	2.435
2.339	2.423	2.430
2.346	2.425	2.422
2.340	2.424	2.422
2.338	2.420	2.426
2.339	2.422	2.426
2.340	2.417	2.420
2.344	2.415	2.424
2.344	2.423	2.414
2.342	2.421	2.409
2.354	2.420	2.393
2.361	2.423	2.390
2.358	2.420	2.387
2.350	2.423	2.388
2.354	2.418	2.385
2.354	2.423	2.390
2.354	2.418	2.386
2.349	2.424	2.404
2.346	2.416	2.403
2.349	2.418	2.404
2.344	2.420	2.407
2.348	2.420	2.419
2.343	2.418	2.425
2.347	2.415	2.424
2.342	2.412	2.432
2.339	2.415	2.434
2.344	2.415	2.436
2.345	2.413	2.444
2.339	2.416	2.444
2.341	2.412	2.442
2.342	2.415	2.437
2.336	2.415	2.444
2.339	2.420	2.452
2.344	2.418	2.454
2.342	2.423	2.461
2.347	2.423	2.462
2.347	2.420	2.462
2.351	2.417	2.457
2.347	2.425	2.438
2.345	2.425	2.435
2.349	2.419	2.431
2.349	2.422	2.429
2.351	2.416	2.432
2.349	2.426	2.429
2.344	2.426	2.431
2.349	2.423	2.441
2.352	2.425	2.447
2.342	2.420	2.446
2.340	2.415	2.439
2.342	2.413	2.434
2.347	2.420	2.432
2.346	2.425	2.424
2.346	2.425	2.438
2.347	2.422	2.441
2.349	2.423	2.442
2.351	2.420	2.449
2.349	2.420	2.447
2.352	2.421	2.448
2.344	2.416	2.437
2.344	2.418	2.439
2.349	2.423	2.433
2.344	2.421	2.429
2.349	2.417	2.424
2.344	2.423	2.421
2.349	2.423	2.422
2.355	2.419	2.408
2.348	2.426	2.407
2.353	2.425	2.409
2.361	2.425	2.406
2.361	2.423	2.404
2.361	2.418	2.408
2.366	2.418	2.417
2.361	2.418	2.412
2.361	2.420	2.417
2.366	2.418	2.424
2.360	2.423	2.427
2.355	2.415	2.437
2.359	2.421	2.441
2.366	2.419	2.449
2.361	2.414	2.441
2.361	2.422	2.432
2.358	2.421	2.424
2.351	2.421	2.423
2.345	2.423	2.420
2.352	2.421	2.426
2.353	2.417	2.424
2.357	2.430	2.431
2.361	2.423	2.441
2.366	2.423	2.459
2.358	2.418	2.467
2.361	2.426	2.461
2.364	2.423	2.467
2.366	2.428	2.473
2.360	2.421	2.471
2.366	2.419	2.481
2.356	2.420	2.494
2.357	2.421	2.491
2.359	2.425	2.488
2.354	2.422	2.478
2.348	2.428	2.463
2.351	2.426	2.454
2.347	2.422	2.457
2.345	2.420	2.456
2.347	2.413	2.471
2.353	2.425	2.468
2.354	2.420	2.471
2.346	2.418	2.469
2.347	2.420	2.464
2.355	2.425	2.464
2.364	2.427	2.461
2.359	2.415	2.456
2.364	2.425	2.449
